Created as New Dataset,Sample 005 By CHEM 370 Date Monday, March 02 2020
cm-1,A
4000.00,0.0003
3999.00,0.0003
3998.00,0.0003
3997.00,0.0003
3996.00,0.0003
3995.00,0.0003
3994.00,0.0003
3993.00,0.0003
3992.00,0.0003
3991.00,0.0003
3990.00,0.0003
3989.00,0.0002
3988.00,0.0002
3987.00,0.0003
3986.00,0.0003
3985.00,0.0003
3984.00,0.0003
3983.00,0.0003
3982.00,0.0002
3981.00,0.0002
3980.00,0.0001
3979.00,0.0001
3978.00,0.0001
3977.00,0.0001
3976.00,0.0001
3975.00,0.0002
3974.00,0.0002
3973.00,0.0001
3972.00,0.0001
3971.00,0.0001
3970.00,0.0001
3969.00,0.0001
3968.00,0.0001
3967.00,0.0001
3966.00,0.0001
3965.00,0.0001
3964.00,0.0001
3963.00,0.0001
3962.00,0.0001
3961.00,0.0001
3960.00,0.0001
3959.00,0.0001
3958.00,0.0001
3957.00,0.0000
3956.00,0.0000
3955.00,0.0000
3954.00,0.0000
3953.00,0.0000
3952.00,0.0000
3951.00,-0.0000
3950.00,-0.0000
3949.00,-0.0001
3948.00,-0.0001
3947.00,-0.0001
3946.00,-0.0000
3945.00,-0.0000
3944.00,-0.0001
3943.00,-0.0001
3942.00,-0.0001
3941.00,-0.0001
3940.00,-0.0000
3939.00,-0.0000
3938.00,-0.0000
3937.00,-0.0000
3936.00,-0.0000
3935.00,0.0000
3934.00,0.0000
3933.00,-0.0000
3932.00,-0.0000
3931.00,-0.0000
3930.00,-0.0001
3929.00,-0.0001
3928.00,-0.0001
3927.00,-0.0001
3926.00,-0.0001
3925.00,-0.0001
3924.00,-0.0001
3923.00,-0.0001
3922.00,-0.0002
3921.00,-0.0002
3920.00,-0.0002
3919.00,-0.0002
3918.00,-0.0002
3917.00,-0.0001
3916.00,-0.0001
3915.00,-0.0000
3914.00,-0.0000
3913.00,-0.0000
3912.00,-0.0000
3911.00,-0.0001
3910.00,-0.0001
3909.00,-0.0002
3908.00,-0.0002
3907.00,-0.0002
3906.00,-0.0003
3905.00,-0.0002
3904.00,-0.0002
3903.00,-0.0002
3902.00,-0.0002
3901.00,-0.0002
3900.00,-0.0003
3899.00,-0.0003
3898.00,-0.0003
3897.00,-0.0003
3896.00,-0.0003
3895.00,-0.0002
3894.00,-0.0002
3893.00,-0.0002
3892.00,-0.0003
3891.00,-0.0003
3890.00,-0.0003
3889.00,-0.0003
3888.00,-0.0003
3887.00,-0.0002
3886.00,-0.0002
3885.00,-0.0002
3884.00,-0.0002
3883.00,-0.0002
3882.00,-0.0003
3881.00,-0.0003
3880.00,-0.0003
3879.00,-0.0003
3878.00,-0.0003
3877.00,-0.0003
3876.00,-0.0003
3875.00,-0.0003
3874.00,-0.0004
3873.00,-0.0004
3872.00,-0.0004
3871.00,-0.0004
3870.00,-0.0004
3869.00,-0.0004
3868.00,-0.0004
3867.00,-0.0003
3866.00,-0.0003
3865.00,-0.0003
3864.00,-0.0003
3863.00,-0.0003
3862.00,-0.0003
3861.00,-0.0002
3860.00,-0.0002
3859.00,-0.0002
3858.00,-0.0003
3857.00,-0.0003
3856.00,-0.0003
3855.00,-0.0003
3854.00,-0.0004
3853.00,-0.0004
3852.00,-0.0004
3851.00,-0.0004
3850.00,-0.0003
3849.00,-0.0003
3848.00,-0.0003
3847.00,-0.0003
3846.00,-0.0003
3845.00,-0.0003
3844.00,-0.0003
3843.00,-0.0003
3842.00,-0.0003
3841.00,-0.0003
3840.00,-0.0003
3839.00,-0.0003
3838.00,-0.0003
3837.00,-0.0002
3836.00,-0.0002
3835.00,-0.0002
3834.00,-0.0002
3833.00,-0.0003
3832.00,-0.0003
3831.00,-0.0003
3830.00,-0.0003
3829.00,-0.0003
3828.00,-0.0003
3827.00,-0.0003
3826.00,-0.0003
3825.00,-0.0003
3824.00,-0.0004
3823.00,-0.0003
3822.00,-0.0003
3821.00,-0.0003
3820.00,-0.0003
3819.00,-0.0003
3818.00,-0.0003
3817.00,-0.0003
3816.00,-0.0003
3815.00,-0.0003
3814.00,-0.0003
3813.00,-0.0003
3812.00,-0.0003
3811.00,-0.0003
3810.00,-0.0003
3809.00,-0.0003
3808.00,-0.0003
3807.00,-0.0004
3806.00,-0.0004
3805.00,-0.0004
3804.00,-0.0004
3803.00,-0.0003
3802.00,-0.0003
3801.00,-0.0003
3800.00,-0.0003
3799.00,-0.0003
3798.00,-0.0003
3797.00,-0.0004
3796.00,-0.0004
3795.00,-0.0004
3794.00,-0.0003
3793.00,-0.0003
3792.00,-0.0004
3791.00,-0.0004
3790.00,-0.0004
3789.00,-0.0004
3788.00,-0.0004
3787.00,-0.0004
3786.00,-0.0004
3785.00,-0.0003
3784.00,-0.0003
3783.00,-0.0002
3782.00,-0.0002
3781.00,-0.0001
3780.00,-0.0001
3779.00,-0.0002
3778.00,-0.0002
3777.00,-0.0002
3776.00,-0.0002
3775.00,-0.0003
3774.00,-0.0003
3773.00,-0.0003
3772.00,-0.0003
3771.00,-0.0002
3770.00,-0.0002
3769.00,-0.0002
3768.00,-0.0002
3767.00,-0.0002
3766.00,-0.0002
3765.00,-0.0003
3764.00,-0.0003
3763.00,-0.0003
3762.00,-0.0003
3761.00,-0.0003
3760.00,-0.0003
3759.00,-0.0003
3758.00,-0.0003
3757.00,-0.0003
3756.00,-0.0003
3755.00,-0.0003
3754.00,-0.0003
3753.00,-0.0003
3752.00,-0.0003
3751.00,-0.0003
3750.00,-0.0003
3749.00,-0.0003
3748.00,-0.0003
3747.00,-0.0003
3746.00,-0.0003
3745.00,-0.0002
3744.00,-0.0002
3743.00,-0.0002
3742.00,-0.0002
3741.00,-0.0002
3740.00,-0.0002
3739.00,-0.0002
3738.00,-0.0002
3737.00,-0.0001
3736.00,-0.0001
3735.00,-0.0001
3734.00,-0.0001
3733.00,-0.0001
3732.00,-0.0001
3731.00,-0.0001
3730.00,-0.0001
3729.00,-0.0001
3728.00,-0.0001
3727.00,-0.0001
3726.00,-0.0000
3725.00,-0.0000
3724.00,-0.0000
3723.00,-0.0001
3722.00,-0.0001
3721.00,-0.0002
3720.00,-0.0002
3719.00,-0.0002
3718.00,-0.0002
3717.00,-0.0002
3716.00,-0.0002
3715.00,-0.0001
3714.00,-0.0001
3713.00,-0.0001
3712.00,-0.0001
3711.00,-0.0001
3710.00,-0.0001
3709.00,-0.0001
3708.00,-0.0001
3707.00,-0.0001
3706.00,-0.0000
3705.00,0.0000
3704.00,0.0000
3703.00,0.0000
3702.00,-0.0000
3701.00,-0.0000
3700.00,-0.0000
3699.00,0.0000
3698.00,0.0000
3697.00,0.0001
3696.00,0.0001
3695.00,0.0001
3694.00,0.0001
3693.00,0.0000
3692.00,-0.0000
3691.00,-0.0000
3690.00,0.0000
3689.00,0.0001
3688.00,0.0001
3687.00,0.0001
3686.00,0.0001
3685.00,0.0001
3684.00,0.0002
3683.00,0.0002
3682.00,0.0002
3681.00,0.0003
3680.00,0.0003
3679.00,0.0003
3678.00,0.0003
3677.00,0.0004
3676.00,0.0004
3675.00,0.0004
3674.00,0.0004
3673.00,0.0004
3672.00,0.0003
3671.00,0.0003
3670.00,0.0004
3669.00,0.0005
3668.00,0.0005
3667.00,0.0005
3666.00,0.0005
3665.00,0.0005
3664.00,0.0005
3663.00,0.0006
3662.00,0.0006
3661.00,0.0007
3660.00,0.0007
3659.00,0.0007
3658.00,0.0008
3657.00,0.0008
3656.00,0.0009
3655.00,0.0009
3654.00,0.0010
3653.00,0.0010
3652.00,0.0011
3651.00,0.0011
3650.00,0.0012
3649.00,0.0012
3648.00,0.0013
3647.00,0.0013
3646.00,0.0014
3645.00,0.0014
3644.00,0.0015
3643.00,0.0015
3642.00,0.0015
3641.00,0.0016
3640.00,0.0017
3639.00,0.0018
3638.00,0.0019
3637.00,0.0020
3636.00,0.0021
3635.00,0.0021
3634.00,0.0022
3633.00,0.0023
3632.00,0.0024
3631.00,0.0025
3630.00,0.0026
3629.00,0.0027
3628.00,0.0028
3627.00,0.0029
3626.00,0.0029
3625.00,0.0030
3624.00,0.0031
3623.00,0.0032
3622.00,0.0033
3621.00,0.0033
3620.00,0.0034
3619.00,0.0036
3618.00,0.0037
3617.00,0.0039
3616.00,0.0041
3615.00,0.0043
3614.00,0.0044
3613.00,0.0046
3612.00,0.0048
3611.00,0.0050
3610.00,0.0052
3609.00,0.0054
3608.00,0.0056
3607.00,0.0057
3606.00,0.0059
3605.00,0.0061
3604.00,0.0063
3603.00,0.0064
3602.00,0.0066
3601.00,0.0069
3600.00,0.0071
3599.00,0.0073
3598.00,0.0076
3597.00,0.0078
3596.00,0.0081
3595.00,0.0083
3594.00,0.0085
3593.00,0.0088
3592.00,0.0090
3591.00,0.0092
3590.00,0.0095
3589.00,0.0098
3588.00,0.0101
3587.00,0.0104
3586.00,0.0107
3585.00,0.0110
3584.00,0.0112
3583.00,0.0115
3582.00,0.0118
3581.00,0.0121
3580.00,0.0123
3579.00,0.0126
3578.00,0.0129
3577.00,0.0132
3576.00,0.0136
3575.00,0.0139
3574.00,0.0142
3573.00,0.0145
3572.00,0.0148
3571.00,0.0151
3570.00,0.0155
3569.00,0.0160
3568.00,0.0165
3567.00,0.0169
3566.00,0.0172
3565.00,0.0175
3564.00,0.0178
3563.00,0.0182
3562.00,0.0186
3561.00,0.0190
3560.00,0.0194
3559.00,0.0198
3558.00,0.0202
3557.00,0.0205
3556.00,0.0209
3555.00,0.0213
3554.00,0.0218
3553.00,0.0223
3552.00,0.0228
3551.00,0.0233
3550.00,0.0237
3549.00,0.0241
3548.00,0.0246
3547.00,0.0251
3546.00,0.0256
3545.00,0.0261
3544.00,0.0266
3543.00,0.0271
3542.00,0.0276
3541.00,0.0280
3540.00,0.0285
3539.00,0.0290
3538.00,0.0295
3537.00,0.0300
3536.00,0.0305
3535.00,0.0311
3534.00,0.0316
3533.00,0.0322
3532.00,0.0327
3531.00,0.0333
3530.00,0.0339
3529.00,0.0346
3528.00,0.0352
3527.00,0.0357
3526.00,0.0363
3525.00,0.0369
3524.00,0.0374
3523.00,0.0381
3522.00,0.0387
3521.00,0.0393
3520.00,0.0400
3519.00,0.0406
3518.00,0.0413
3517.00,0.0419
3516.00,0.0425
3515.00,0.0431
3514.00,0.0438
3513.00,0.0445
3512.00,0.0451
3511.00,0.0458
3510.00,0.0464
3509.00,0.0471
3508.00,0.0478
3507.00,0.0486
3506.00,0.0493
3505.00,0.0501
3504.00,0.0509
3503.00,0.0516
3502.00,0.0523
3501.00,0.0530
3500.00,0.0537
3499.00,0.0544
3498.00,0.0552
3497.00,0.0559
3496.00,0.0567
3495.00,0.0574
3494.00,0.0582
3493.00,0.0589
3492.00,0.0597
3491.00,0.0605
3490.00,0.0613
3489.00,0.0621
3488.00,0.0629
3487.00,0.0637
3486.00,0.0645
3485.00,0.0653
3484.00,0.0661
3483.00,0.0669
3482.00,0.0678
3481.00,0.0687
3480.00,0.0695
3479.00,0.0703
3478.00,0.0711
3477.00,0.0720
3476.00,0.0728
3475.00,0.0737
3474.00,0.0746
3473.00,0.0755
3472.00,0.0763
3471.00,0.0771
3470.00,0.0780
3469.00,0.0789
3468.00,0.0797
3467.00,0.0806
3466.00,0.0815
3465.00,0.0824
3464.00,0.0833
3463.00,0.0842
3462.00,0.0851
3461.00,0.0860
3460.00,0.0869
3459.00,0.0877
3458.00,0.0886
3457.00,0.0895
3456.00,0.0904
3455.00,0.0913
3454.00,0.0922
3453.00,0.0931
3452.00,0.0940
3451.00,0.0948
3450.00,0.0957
3449.00,0.0967
3448.00,0.0977
3447.00,0.0987
3446.00,0.0996
3445.00,0.1006
3444.00,0.1015
3443.00,0.1024
3442.00,0.1034
3441.00,0.1043
3440.00,0.1053
3439.00,0.1062
3438.00,0.1072
3437.00,0.1081
3436.00,0.1090
3435.00,0.1098
3434.00,0.1107
3433.00,0.1117
3432.00,0.1127
3431.00,0.1137
3430.00,0.1146
3429.00,0.1156
3428.00,0.1166
3427.00,0.1175
3426.00,0.1184
3425.00,0.1193
3424.00,0.1202
3423.00,0.1211
3422.00,0.1221
3421.00,0.1231
3420.00,0.1241
3419.00,0.1250
3418.00,0.1260
3417.00,0.1269
3416.00,0.1279
3415.00,0.1288
3414.00,0.1297
3413.00,0.1306
3412.00,0.1315
3411.00,0.1324
3410.00,0.1334
3409.00,0.1344
3408.00,0.1354
3407.00,0.1363
3406.00,0.1372
3405.00,0.1381
3404.00,0.1391
3403.00,0.1400
3402.00,0.1410
3401.00,0.1419
3400.00,0.1428
3399.00,0.1437
3398.00,0.1445
3397.00,0.1454
3396.00,0.1462
3395.00,0.1471
3394.00,0.1480
3393.00,0.1489
3392.00,0.1498
3391.00,0.1507
3390.00,0.1515
3389.00,0.1524
3388.00,0.1532
3387.00,0.1541
3386.00,0.1549
3385.00,0.1558
3384.00,0.1567
3383.00,0.1576
3382.00,0.1585
3381.00,0.1594
3380.00,0.1602
3379.00,0.1610
3378.00,0.1619
3377.00,0.1627
3376.00,0.1635
3375.00,0.1643
3374.00,0.1651
3373.00,0.1660
3372.00,0.1668
3371.00,0.1677
3370.00,0.1686
3369.00,0.1694
3368.00,0.1702
3367.00,0.1709
3366.00,0.1716
3365.00,0.1723
3364.00,0.1730
3363.00,0.1737
3362.00,0.1744
3361.00,0.1751
3360.00,0.1759
3359.00,0.1766
3358.00,0.1773
3357.00,0.1780
3356.00,0.1787
3355.00,0.1794
3354.00,0.1801
3353.00,0.1807
3352.00,0.1814
3351.00,0.1820
3350.00,0.1826
3349.00,0.1832
3348.00,0.1838
3347.00,0.1844
3346.00,0.1849
3345.00,0.1856
3344.00,0.1862
3343.00,0.1868
3342.00,0.1875
3341.00,0.1881
3340.00,0.1886
3339.00,0.1891
3338.00,0.1896
3337.00,0.1900
3336.00,0.1904
3335.00,0.1909
3334.00,0.1913
3333.00,0.1918
3332.00,0.1923
3331.00,0.1927
3330.00,0.1932
3329.00,0.1936
3328.00,0.1941
3327.00,0.1945
3326.00,0.1949
3325.00,0.1953
3324.00,0.1956
3323.00,0.1960
3322.00,0.1963
3321.00,0.1966
3320.00,0.1970
3319.00,0.1973
3318.00,0.1976
3317.00,0.1979
3316.00,0.1981
3315.00,0.1984
3314.00,0.1987
3313.00,0.1989
3312.00,0.1992
3311.00,0.1995
3310.00,0.1998
3309.00,0.2000
3308.00,0.2002
3307.00,0.2004
3306.00,0.2005
3305.00,0.2006
3304.00,0.2006
3303.00,0.2007
3302.00,0.2007
3301.00,0.2008
3300.00,0.2008
3299.00,0.2009
3298.00,0.2009
3297.00,0.2010
3296.00,0.2010
3295.00,0.2010
3294.00,0.2010
3293.00,0.2010
3292.00,0.2010
3291.00,0.2009
3290.00,0.2008
3289.00,0.2007
3288.00,0.2006
3287.00,0.2005
3286.00,0.2004
3285.00,0.2003
3284.00,0.2002
3283.00,0.2001
3282.00,0.1999
3281.00,0.1997
3280.00,0.1995
3279.00,0.1993
3278.00,0.1992
3277.00,0.1991
3276.00,0.1989
3275.00,0.1988
3274.00,0.1986
3273.00,0.1983
3272.00,0.1981
3271.00,0.1977
3270.00,0.1973
3269.00,0.1969
3268.00,0.1965
3267.00,0.1962
3266.00,0.1958
3265.00,0.1955
3264.00,0.1950
3263.00,0.1946
3262.00,0.1942
3261.00,0.1938
3260.00,0.1935
3259.00,0.1931
3258.00,0.1927
3257.00,0.1923
3256.00,0.1918
3255.00,0.1913
3254.00,0.1908
3253.00,0.1902
3252.00,0.1897
3251.00,0.1891
3250.00,0.1886
3249.00,0.1880
3248.00,0.1875
3247.00,0.1869
3246.00,0.1864
3245.00,0.1857
3244.00,0.1851
3243.00,0.1844
3242.00,0.1837
3241.00,0.1830
3240.00,0.1823
3239.00,0.1816
3238.00,0.1810
3237.00,0.1804
3236.00,0.1798
3235.00,0.1791
3234.00,0.1784
3233.00,0.1776
3232.00,0.1769
3231.00,0.1761
3230.00,0.1753
3229.00,0.1745
3228.00,0.1737
3227.00,0.1729
3226.00,0.1721
3225.00,0.1712
3224.00,0.1704
3223.00,0.1696
3222.00,0.1687
3221.00,0.1679
3220.00,0.1670
3219.00,0.1662
3218.00,0.1653
3217.00,0.1644
3216.00,0.1636
3215.00,0.1627
3214.00,0.1618
3213.00,0.1608
3212.00,0.1599
3211.00,0.1590
3210.00,0.1580
3209.00,0.1571
3208.00,0.1562
3207.00,0.1552
3206.00,0.1542
3205.00,0.1532
3204.00,0.1523
3203.00,0.1513
3202.00,0.1503
3201.00,0.1493
3200.00,0.1483
3199.00,0.1473
3198.00,0.1463
3197.00,0.1453
3196.00,0.1443
3195.00,0.1433
3194.00,0.1423
3193.00,0.1412
3192.00,0.1402
3191.00,0.1391
3190.00,0.1381
3189.00,0.1371
3188.00,0.1360
3187.00,0.1350
3186.00,0.1340
3185.00,0.1329
3184.00,0.1319
3183.00,0.1309
3182.00,0.1299
3181.00,0.1289
3180.00,0.1278
3179.00,0.1267
3178.00,0.1256
3177.00,0.1245
3176.00,0.1235
3175.00,0.1224
3174.00,0.1214
3173.00,0.1204
3172.00,0.1193
3171.00,0.1183
3170.00,0.1173
3169.00,0.1162
3168.00,0.1152
3167.00,0.1141
3166.00,0.1131
3165.00,0.1121
3164.00,0.1111
3163.00,0.1101
3162.00,0.1091
3161.00,0.1081
3160.00,0.1071
3159.00,0.1061
3158.00,0.1051
3157.00,0.1041
3156.00,0.1031
3155.00,0.1021
3154.00,0.1011
3153.00,0.1001
3152.00,0.0991
3151.00,0.0981
3150.00,0.0971
3149.00,0.0961
3148.00,0.0951
3147.00,0.0942
3146.00,0.0932
3145.00,0.0923
3144.00,0.0913
3143.00,0.0904
3142.00,0.0895
3141.00,0.0885
3140.00,0.0876
3139.00,0.0867
3138.00,0.0857
3137.00,0.0849
3136.00,0.0840
3135.00,0.0832
3134.00,0.0823
3133.00,0.0815
3132.00,0.0806
3131.00,0.0797
3130.00,0.0789
3129.00,0.0780
3128.00,0.0772
3127.00,0.0764
3126.00,0.0756
3125.00,0.0748
3124.00,0.0740
3123.00,0.0731
3122.00,0.0723
3121.00,0.0716
3120.00,0.0708
3119.00,0.0701
3118.00,0.0693
3117.00,0.0686
3116.00,0.0678
3115.00,0.0670
3114.00,0.0662
3113.00,0.0655
3112.00,0.0648
3111.00,0.0641
3110.00,0.0633
3109.00,0.0626
3108.00,0.0619
3107.00,0.0612
3106.00,0.0605
3105.00,0.0598
3104.00,0.0592
3103.00,0.0586
3102.00,0.0579
3101.00,0.0573
3100.00,0.0567
3099.00,0.0561
3098.00,0.0554
3097.00,0.0548
3096.00,0.0542
3095.00,0.0536
3094.00,0.0530
3093.00,0.0524
3092.00,0.0519
3091.00,0.0513
3090.00,0.0508
3089.00,0.0502
3088.00,0.0497
3087.00,0.0492
3086.00,0.0487
3085.00,0.0482
3084.00,0.0476
3083.00,0.0471
3082.00,0.0466
3081.00,0.0461
3080.00,0.0456
3079.00,0.0451
3078.00,0.0446
3077.00,0.0441
3076.00,0.0436
3075.00,0.0432
3074.00,0.0427
3073.00,0.0422
3072.00,0.0418
3071.00,0.0413
3070.00,0.0409
3069.00,0.0405
3068.00,0.0400
3067.00,0.0396
3066.00,0.0392
3065.00,0.0389
3064.00,0.0385
3063.00,0.0381
3062.00,0.0376
3061.00,0.0373
3060.00,0.0369
3059.00,0.0365
3058.00,0.0361
3057.00,0.0358
3056.00,0.0354
3055.00,0.0351
3054.00,0.0348
3053.00,0.0345
3052.00,0.0341
3051.00,0.0338
3050.00,0.0335
3049.00,0.0332
3048.00,0.0329
3047.00,0.0326
3046.00,0.0322
3045.00,0.0319
3044.00,0.0316
3043.00,0.0314
3042.00,0.0311
3041.00,0.0309
3040.00,0.0306
3039.00,0.0303
3038.00,0.0301
3037.00,0.0298
3036.00,0.0296
3035.00,0.0294
3034.00,0.0292
3033.00,0.0290
3032.00,0.0288
3031.00,0.0285
3030.00,0.0283
3029.00,0.0281
3028.00,0.0279
3027.00,0.0277
3026.00,0.0275
3025.00,0.0273
3024.00,0.0272
3023.00,0.0270
3022.00,0.0268
3021.00,0.0266
3020.00,0.0265
3019.00,0.0264
3018.00,0.0262
3017.00,0.0261
3016.00,0.0259
3015.00,0.0258
3014.00,0.0257
3013.00,0.0256
3012.00,0.0256
3011.00,0.0256
3010.00,0.0256
3009.00,0.0255
3008.00,0.0255
3007.00,0.0255
3006.00,0.0256
3005.00,0.0257
3004.00,0.0258
3003.00,0.0260
3002.00,0.0262
3001.00,0.0265
3000.00,0.0268
2999.00,0.0272
2998.00,0.0276
2997.00,0.0281
2996.00,0.0287
2995.00,0.0294
2994.00,0.0301
2993.00,0.0309
2992.00,0.0318
2991.00,0.0328
2990.00,0.0338
2989.00,0.0348
2988.00,0.0360
2987.00,0.0372
2986.00,0.0384
2985.00,0.0397
2984.00,0.0411
2983.00,0.0424
2982.00,0.0438
2981.00,0.0453
2980.00,0.0467
2979.00,0.0481
2978.00,0.0495
2977.00,0.0509
2976.00,0.0522
2975.00,0.0535
2974.00,0.0547
2973.00,0.0558
2972.00,0.0568
2971.00,0.0576
2970.00,0.0583
2969.00,0.0588
2968.00,0.0591
2967.00,0.0593
2966.00,0.0593
2965.00,0.0593
2964.00,0.0593
2963.00,0.0594
2962.00,0.0594
2961.00,0.0596
2960.00,0.0599
2959.00,0.0603
2958.00,0.0609
2957.00,0.0616
2956.00,0.0624
2955.00,0.0633
2954.00,0.0643
2953.00,0.0654
2952.00,0.0666
2951.00,0.0678
2950.00,0.0690
2949.00,0.0703
2948.00,0.0716
2947.00,0.0730
2946.00,0.0743
2945.00,0.0756
2944.00,0.0770
2943.00,0.0783
2942.00,0.0795
2941.00,0.0808
2940.00,0.0819
2939.00,0.0830
2938.00,0.0839
2937.00,0.0847
2936.00,0.0854
2935.00,0.0859
2934.00,0.0863
2933.00,0.0865
2932.00,0.0866
2931.00,0.0865
2930.00,0.0862
2929.00,0.0859
2928.00,0.0854
2927.00,0.0849
2926.00,0.0844
2925.00,0.0837
2924.00,0.0829
2923.00,0.0821
2922.00,0.0812
2921.00,0.0803
2920.00,0.0794
2919.00,0.0785
2918.00,0.0776
2917.00,0.0767
2916.00,0.0758
2915.00,0.0749
2914.00,0.0740
2913.00,0.0732
2912.00,0.0725
2911.00,0.0718
2910.00,0.0711
2909.00,0.0706
2908.00,0.0701
2907.00,0.0697
2906.00,0.0693
2905.00,0.0692
2904.00,0.0691
2903.00,0.0691
2902.00,0.0692
2901.00,0.0695
2900.00,0.0698
2899.00,0.0702
2898.00,0.0706
2897.00,0.0711
2896.00,0.0718
2895.00,0.0725
2894.00,0.0733
2893.00,0.0741
2892.00,0.0750
2891.00,0.0758
2890.00,0.0767
2889.00,0.0776
2888.00,0.0785
2887.00,0.0793
2886.00,0.0802
2885.00,0.0809
2884.00,0.0816
2883.00,0.0822
2882.00,0.0826
2881.00,0.0829
2880.00,0.0832
2879.00,0.0832
2878.00,0.0831
2877.00,0.0828
2876.00,0.0823
2875.00,0.0817
2874.00,0.0809
2873.00,0.0800
2872.00,0.0790
2871.00,0.0778
2870.00,0.0766
2869.00,0.0753
2868.00,0.0740
2867.00,0.0726
2866.00,0.0711
2865.00,0.0697
2864.00,0.0683
2863.00,0.0670
2862.00,0.0657
2861.00,0.0644
2860.00,0.0632
2859.00,0.0620
2858.00,0.0609
2857.00,0.0598
2856.00,0.0589
2855.00,0.0579
2854.00,0.0571
2853.00,0.0563
2852.00,0.0555
2851.00,0.0548
2850.00,0.0540
2849.00,0.0533
2848.00,0.0526
2847.00,0.0519
2846.00,0.0512
2845.00,0.0506
2844.00,0.0500
2843.00,0.0495
2842.00,0.0489
2841.00,0.0483
2840.00,0.0477
2839.00,0.0472
2838.00,0.0466
2837.00,0.0461
2836.00,0.0456
2835.00,0.0451
2834.00,0.0446
2833.00,0.0441
2832.00,0.0436
2831.00,0.0431
2830.00,0.0426
2829.00,0.0422
2828.00,0.0417
2827.00,0.0412
2826.00,0.0407
2825.00,0.0402
2824.00,0.0397
2823.00,0.0393
2822.00,0.0389
2821.00,0.0384
2820.00,0.0380
2819.00,0.0376
2818.00,0.0371
2817.00,0.0366
2816.00,0.0362
2815.00,0.0358
2814.00,0.0354
2813.00,0.0350
2812.00,0.0346
2811.00,0.0341
2810.00,0.0337
2809.00,0.0333
2808.00,0.0329
2807.00,0.0326
2806.00,0.0322
2805.00,0.0319
2804.00,0.0316
2803.00,0.0312
2802.00,0.0309
2801.00,0.0306
2800.00,0.0302
2799.00,0.0299
2798.00,0.0296
2797.00,0.0293
2796.00,0.0290
2795.00,0.0287
2794.00,0.0284
2793.00,0.0282
2792.00,0.0279
2791.00,0.0277
2790.00,0.0274
2789.00,0.0272
2788.00,0.0270
2787.00,0.0267
2786.00,0.0265
2785.00,0.0263
2784.00,0.0261
2783.00,0.0259
2782.00,0.0257
2781.00,0.0256
2780.00,0.0254
2779.00,0.0252
2778.00,0.0250
2777.00,0.0248
2776.00,0.0246
2775.00,0.0245
2774.00,0.0243
2773.00,0.0242
2772.00,0.0240
2771.00,0.0238
2770.00,0.0237
2769.00,0.0236
2768.00,0.0235
2767.00,0.0233
2766.00,0.0232
2765.00,0.0231
2764.00,0.0230
2763.00,0.0229
2762.00,0.0228
2761.00,0.0227
2760.00,0.0226
2759.00,0.0225
2758.00,0.0224
2757.00,0.0223
2756.00,0.0223
2755.00,0.0222
2754.00,0.0221
2753.00,0.0220
2752.00,0.0219
2751.00,0.0218
2750.00,0.0217
2749.00,0.0216
2748.00,0.0215
2747.00,0.0214
2746.00,0.0213
2745.00,0.0212
2744.00,0.0212
2743.00,0.0211
2742.00,0.0210
2741.00,0.0209
2740.00,0.0208
2739.00,0.0208
2738.00,0.0207
2737.00,0.0206
2736.00,0.0206
2735.00,0.0205
2734.00,0.0204
2733.00,0.0203
2732.00,0.0202
2731.00,0.0202
2730.00,0.0201
2729.00,0.0200
2728.00,0.0199
2727.00,0.0198
2726.00,0.0197
2725.00,0.0196
2724.00,0.0195
2723.00,0.0194
2722.00,0.0193
2721.00,0.0193
2720.00,0.0192
2719.00,0.0191
2718.00,0.0190
2717.00,0.0189
2716.00,0.0187
2715.00,0.0186
2714.00,0.0185
2713.00,0.0184
2712.00,0.0183
2711.00,0.0182
2710.00,0.0181
2709.00,0.0180
2708.00,0.0179
2707.00,0.0178
2706.00,0.0177
2705.00,0.0177
2704.00,0.0176
2703.00,0.0176
2702.00,0.0175
2701.00,0.0175
2700.00,0.0174
2699.00,0.0173
2698.00,0.0173
2697.00,0.0172
2696.00,0.0171
2695.00,0.0171
2694.00,0.0170
2693.00,0.0170
2692.00,0.0170
2691.00,0.0169
2690.00,0.0169
2689.00,0.0169
2688.00,0.0168
2687.00,0.0168
2686.00,0.0168
2685.00,0.0167
2684.00,0.0167
2683.00,0.0166
2682.00,0.0166
2681.00,0.0166
2680.00,0.0166
2679.00,0.0166
2678.00,0.0165
2677.00,0.0165
2676.00,0.0164
2675.00,0.0164
2674.00,0.0164
2673.00,0.0164
2672.00,0.0163
2671.00,0.0163
2670.00,0.0162
2669.00,0.0162
2668.00,0.0162
2667.00,0.0162
2666.00,0.0161
2665.00,0.0161
2664.00,0.0161
2663.00,0.0160
2662.00,0.0160
2661.00,0.0160
2660.00,0.0159
2659.00,0.0158
2658.00,0.0158
2657.00,0.0158
2656.00,0.0157
2655.00,0.0156
2654.00,0.0156
2653.00,0.0155
2652.00,0.0154
2651.00,0.0153
2650.00,0.0153
2649.00,0.0153
2648.00,0.0152
2647.00,0.0152
2646.00,0.0151
2645.00,0.0150
2644.00,0.0149
2643.00,0.0148
2642.00,0.0148
2641.00,0.0147
2640.00,0.0146
2639.00,0.0145
2638.00,0.0144
2637.00,0.0143
2636.00,0.0143
2635.00,0.0142
2634.00,0.0142
2633.00,0.0141
2632.00,0.0140
2631.00,0.0139
2630.00,0.0138
2629.00,0.0137
2628.00,0.0136
2627.00,0.0135
2626.00,0.0134
2625.00,0.0133
2624.00,0.0132
2623.00,0.0131
2622.00,0.0130
2621.00,0.0130
2620.00,0.0129
2619.00,0.0128
2618.00,0.0127
2617.00,0.0126
2616.00,0.0126
2615.00,0.0125
2614.00,0.0124
2613.00,0.0123
2612.00,0.0122
2611.00,0.0121
2610.00,0.0120
2609.00,0.0119
2608.00,0.0119
2607.00,0.0118
2606.00,0.0117
2605.00,0.0116
2604.00,0.0115
2603.00,0.0114
2602.00,0.0113
2601.00,0.0112
2600.00,0.0111
2599.00,0.0110
2598.00,0.0109
2597.00,0.0108
2596.00,0.0107
2595.00,0.0107
2594.00,0.0106
2593.00,0.0105
2592.00,0.0105
2591.00,0.0105
2590.00,0.0104
2589.00,0.0104
2588.00,0.0103
2587.00,0.0103
2586.00,0.0103
2585.00,0.0102
2584.00,0.0102
2583.00,0.0101
2582.00,0.0100
2581.00,0.0100
2580.00,0.0100
2579.00,0.0099
2578.00,0.0098
2577.00,0.0098
2576.00,0.0098
2575.00,0.0097
2574.00,0.0097
2573.00,0.0097
2572.00,0.0097
2571.00,0.0096
2570.00,0.0096
2569.00,0.0096
2568.00,0.0096
2567.00,0.0096
2566.00,0.0095
2565.00,0.0095
2564.00,0.0095
2563.00,0.0094
2562.00,0.0094
2561.00,0.0093
2560.00,0.0093
2559.00,0.0093
2558.00,0.0093
2557.00,0.0092
2556.00,0.0092
2555.00,0.0092
2554.00,0.0092
2553.00,0.0092
2552.00,0.0092
2551.00,0.0092
2550.00,0.0091
2549.00,0.0091
2548.00,0.0091
2547.00,0.0091
2546.00,0.0091
2545.00,0.0091
2544.00,0.0090
2543.00,0.0090
2542.00,0.0089
2541.00,0.0089
2540.00,0.0089
2539.00,0.0089
2538.00,0.0089
2537.00,0.0089
2536.00,0.0089
2535.00,0.0089
2534.00,0.0089
2533.00,0.0089
2532.00,0.0089
2531.00,0.0089
2530.00,0.0089
2529.00,0.0089
2528.00,0.0089
2527.00,0.0088
2526.00,0.0088
2525.00,0.0087
2524.00,0.0086
2523.00,0.0086
2522.00,0.0086
2521.00,0.0086
2520.00,0.0086
2519.00,0.0086
2518.00,0.0085
2517.00,0.0084
2516.00,0.0083
2515.00,0.0083
2514.00,0.0082
2513.00,0.0082
2512.00,0.0081
2511.00,0.0081
2510.00,0.0081
2509.00,0.0082
2508.00,0.0082
2507.00,0.0081
2506.00,0.0080
2505.00,0.0079
2504.00,0.0079
2503.00,0.0078
2502.00,0.0079
2501.00,0.0079
2500.00,0.0079
2499.00,0.0078
2498.00,0.0078
2497.00,0.0077
2496.00,0.0077
2495.00,0.0076
2494.00,0.0076
2493.00,0.0075
2492.00,0.0075
2491.00,0.0075
2490.00,0.0074
2489.00,0.0073
2488.00,0.0073
2487.00,0.0073
2486.00,0.0073
2485.00,0.0073
2484.00,0.0073
2483.00,0.0073
2482.00,0.0073
2481.00,0.0072
2480.00,0.0071
2479.00,0.0070
2478.00,0.0070
2477.00,0.0070
2476.00,0.0070
2475.00,0.0069
2474.00,0.0069
2473.00,0.0068
2472.00,0.0067
2471.00,0.0067
2470.00,0.0066
2469.00,0.0066
2468.00,0.0066
2467.00,0.0066
2466.00,0.0066
2465.00,0.0065
2464.00,0.0065
2463.00,0.0064
2462.00,0.0063
2461.00,0.0063
2460.00,0.0062
2459.00,0.0062
2458.00,0.0061
2457.00,0.0060
2456.00,0.0060
2455.00,0.0060
2454.00,0.0059
2453.00,0.0059
2452.00,0.0058
2451.00,0.0058
2450.00,0.0058
2449.00,0.0058
2448.00,0.0057
2447.00,0.0057
2446.00,0.0056
2445.00,0.0055
2444.00,0.0055
2443.00,0.0054
2442.00,0.0054
2441.00,0.0054
2440.00,0.0053
2439.00,0.0052
2438.00,0.0052
2437.00,0.0051
2436.00,0.0051
2435.00,0.0050
2434.00,0.0050
2433.00,0.0049
2432.00,0.0049
2431.00,0.0048
2430.00,0.0048
2429.00,0.0048
2428.00,0.0047
2427.00,0.0047
2426.00,0.0046
2425.00,0.0046
2424.00,0.0046
2423.00,0.0045
2422.00,0.0045
2421.00,0.0044
2420.00,0.0044
2419.00,0.0043
2418.00,0.0043
2417.00,0.0042
2416.00,0.0042
2415.00,0.0042
2414.00,0.0042
2413.00,0.0042
2412.00,0.0041
2411.00,0.0040
2410.00,0.0040
2409.00,0.0040
2408.00,0.0040
2407.00,0.0040
2406.00,0.0039
2405.00,0.0039
2404.00,0.0038
2403.00,0.0038
2402.00,0.0038
2401.00,0.0038
2400.00,0.0038
2399.00,0.0038
2398.00,0.0038
2397.00,0.0037
2396.00,0.0037
2395.00,0.0036
2394.00,0.0036
2393.00,0.0036
2392.00,0.0035
2391.00,0.0035
2390.00,0.0035
2389.00,0.0034
2388.00,0.0034
2387.00,0.0034
2386.00,0.0033
2385.00,0.0033
2384.00,0.0033
2383.00,0.0033
2382.00,0.0034
2381.00,0.0034
2380.00,0.0034
2379.00,0.0033
2378.00,0.0032
2377.00,0.0032
2376.00,0.0031
2375.00,0.0031
2374.00,0.0031
2373.00,0.0032
2372.00,0.0033
2371.00,0.0033
2370.00,0.0033
2369.00,0.0033
2368.00,0.0033
2367.00,0.0032
2366.00,0.0032
2365.00,0.0032
2364.00,0.0032
2363.00,0.0031
2362.00,0.0031
2361.00,0.0031
2360.00,0.0030
2359.00,0.0030
2358.00,0.0029
2357.00,0.0030
2356.00,0.0031
2355.00,0.0032
2354.00,0.0032
2353.00,0.0032
2352.00,0.0031
2351.00,0.0031
2350.00,0.0030
2349.00,0.0030
2348.00,0.0030
2347.00,0.0030
2346.00,0.0030
2345.00,0.0030
2344.00,0.0030
2343.00,0.0030
2342.00,0.0029
2341.00,0.0029
2340.00,0.0029
2339.00,0.0029
2338.00,0.0030
2337.00,0.0030
2336.00,0.0031
2335.00,0.0030
2334.00,0.0030
2333.00,0.0029
2332.00,0.0029
2331.00,0.0028
2330.00,0.0028
2329.00,0.0027
2328.00,0.0027
2327.00,0.0028
2326.00,0.0028
2325.00,0.0028
2324.00,0.0027
2323.00,0.0027
2322.00,0.0028
2321.00,0.0028
2320.00,0.0028
2319.00,0.0027
2318.00,0.0027
2317.00,0.0027
2316.00,0.0028
2315.00,0.0028
2314.00,0.0028
2313.00,0.0027
2312.00,0.0026
2311.00,0.0026
2310.00,0.0026
2309.00,0.0027
2308.00,0.0027
2307.00,0.0026
2306.00,0.0025
2305.00,0.0025
2304.00,0.0025
2303.00,0.0026
2302.00,0.0026
2301.00,0.0026
2300.00,0.0025
2299.00,0.0025
2298.00,0.0024
2297.00,0.0024
2296.00,0.0024
2295.00,0.0023
2294.00,0.0023
2293.00,0.0023
2292.00,0.0022
2291.00,0.0022
2290.00,0.0022
2289.00,0.0022
2288.00,0.0021
2287.00,0.0021
2286.00,0.0021
2285.00,0.0021
2284.00,0.0021
2283.00,0.0021
2282.00,0.0021
2281.00,0.0021
2280.00,0.0020
2279.00,0.0020
2278.00,0.0020
2277.00,0.0020
2276.00,0.0019
2275.00,0.0019
2274.00,0.0019
2273.00,0.0018
2272.00,0.0018
2271.00,0.0018
2270.00,0.0018
2269.00,0.0017
2268.00,0.0017
2267.00,0.0017
2266.00,0.0017
2265.00,0.0017
2264.00,0.0017
2263.00,0.0016
2262.00,0.0016
2261.00,0.0017
2260.00,0.0017
2259.00,0.0017
2258.00,0.0016
2257.00,0.0016
2256.00,0.0016
2255.00,0.0016
2254.00,0.0016
2253.00,0.0016
2252.00,0.0017
2251.00,0.0017
2250.00,0.0017
2249.00,0.0017
2248.00,0.0018
2247.00,0.0018
2246.00,0.0018
2245.00,0.0018
2244.00,0.0017
2243.00,0.0017
2242.00,0.0017
2241.00,0.0017
2240.00,0.0016
2239.00,0.0016
2238.00,0.0016
2237.00,0.0017
2236.00,0.0017
2235.00,0.0017
2234.00,0.0016
2233.00,0.0016
2232.00,0.0015
2231.00,0.0015
2230.00,0.0015
2229.00,0.0015
2228.00,0.0015
2227.00,0.0015
2226.00,0.0016
2225.00,0.0017
2224.00,0.0017
2223.00,0.0017
2222.00,0.0017
2221.00,0.0018
2220.00,0.0018
2219.00,0.0018
2218.00,0.0018
2217.00,0.0017
2216.00,0.0017
2215.00,0.0017
2214.00,0.0017
2213.00,0.0018
2212.00,0.0018
2211.00,0.0017
2210.00,0.0016
2209.00,0.0016
2208.00,0.0016
2207.00,0.0016
2206.00,0.0017
2205.00,0.0017
2204.00,0.0016
2203.00,0.0016
2202.00,0.0015
2201.00,0.0015
2200.00,0.0015
2199.00,0.0015
2198.00,0.0015
2197.00,0.0016
2196.00,0.0017
2195.00,0.0017
2194.00,0.0016
2193.00,0.0016
2192.00,0.0016
2191.00,0.0016
2190.00,0.0016
2189.00,0.0016
2188.00,0.0016
2187.00,0.0016
2186.00,0.0016
2185.00,0.0017
2184.00,0.0018
2183.00,0.0019
2182.00,0.0019
2181.00,0.0019
2180.00,0.0019
2179.00,0.0018
2178.00,0.0018
2177.00,0.0018
2176.00,0.0018
2175.00,0.0019
2174.00,0.0019
2173.00,0.0018
2172.00,0.0017
2171.00,0.0017
2170.00,0.0016
2169.00,0.0017
2168.00,0.0017
2167.00,0.0018
2166.00,0.0018
2165.00,0.0018
2164.00,0.0017
2163.00,0.0017
2162.00,0.0016
2161.00,0.0016
2160.00,0.0016
2159.00,0.0016
2158.00,0.0015
2157.00,0.0015
2156.00,0.0017
2155.00,0.0018
2154.00,0.0018
2153.00,0.0018
2152.00,0.0019
2151.00,0.0019
2150.00,0.0020
2149.00,0.0020
2148.00,0.0020
2147.00,0.0020
2146.00,0.0021
2145.00,0.0021
2144.00,0.0021
2143.00,0.0021
2142.00,0.0020
2141.00,0.0019
2140.00,0.0018
2139.00,0.0018
2138.00,0.0018
2137.00,0.0018
2136.00,0.0019
2135.00,0.0020
2134.00,0.0021
2133.00,0.0021
2132.00,0.0022
2131.00,0.0022
2130.00,0.0022
2129.00,0.0022
2128.00,0.0021
2127.00,0.0021
2126.00,0.0020
2125.00,0.0020
2124.00,0.0020
2123.00,0.0020
2122.00,0.0020
2121.00,0.0020
2120.00,0.0021
2119.00,0.0021
2118.00,0.0021
2117.00,0.0022
2116.00,0.0022
2115.00,0.0023
2114.00,0.0023
2113.00,0.0023
2112.00,0.0023
2111.00,0.0022
2110.00,0.0022
2109.00,0.0021
2108.00,0.0021
2107.00,0.0021
2106.00,0.0021
2105.00,0.0021
2104.00,0.0021
2103.00,0.0022
2102.00,0.0022
2101.00,0.0023
2100.00,0.0023
2099.00,0.0023
2098.00,0.0022
2097.00,0.0022
2096.00,0.0021
2095.00,0.0022
2094.00,0.0022
2093.00,0.0022
2092.00,0.0022
2091.00,0.0023
2090.00,0.0023
2089.00,0.0024
2088.00,0.0025
2087.00,0.0025
2086.00,0.0024
2085.00,0.0024
2084.00,0.0024
2083.00,0.0024
2082.00,0.0024
2081.00,0.0024
2080.00,0.0024
2079.00,0.0025
2078.00,0.0025
2077.00,0.0025
2076.00,0.0025
2075.00,0.0024
2074.00,0.0024
2073.00,0.0024
2072.00,0.0024
2071.00,0.0024
2070.00,0.0023
2069.00,0.0023
2068.00,0.0023
2067.00,0.0023
2066.00,0.0024
2065.00,0.0024
2064.00,0.0024
2063.00,0.0024
2062.00,0.0023
2061.00,0.0023
2060.00,0.0023
2059.00,0.0023
2058.00,0.0022
2057.00,0.0022
2056.00,0.0021
2055.00,0.0021
2054.00,0.0020
2053.00,0.0020
2052.00,0.0019
2051.00,0.0019
2050.00,0.0019
2049.00,0.0019
2048.00,0.0019
2047.00,0.0019
2046.00,0.0019
2045.00,0.0019
2044.00,0.0019
2043.00,0.0019
2042.00,0.0019
2041.00,0.0019
2040.00,0.0019
2039.00,0.0019
2038.00,0.0018
2037.00,0.0017
2036.00,0.0015
2035.00,0.0014
2034.00,0.0014
2033.00,0.0014
2032.00,0.0015
2031.00,0.0016
2030.00,0.0016
2029.00,0.0016
2028.00,0.0016
2027.00,0.0016
2026.00,0.0016
2025.00,0.0016
2024.00,0.0015
2023.00,0.0015
2022.00,0.0015
2021.00,0.0015
2020.00,0.0015
2019.00,0.0015
2018.00,0.0015
2017.00,0.0015
2016.00,0.0015
2015.00,0.0014
2014.00,0.0013
2013.00,0.0013
2012.00,0.0013
2011.00,0.0013
2010.00,0.0012
2009.00,0.0011
2008.00,0.0011
2007.00,0.0011
2006.00,0.0012
2005.00,0.0014
2004.00,0.0015
2003.00,0.0015
2002.00,0.0015
2001.00,0.0015
2000.00,0.0016
1999.00,0.0016
1998.00,0.0017
1997.00,0.0016
1996.00,0.0016
1995.00,0.0015
1994.00,0.0015
1993.00,0.0016
1992.00,0.0016
1991.00,0.0016
1990.00,0.0016
1989.00,0.0016
1988.00,0.0016
1987.00,0.0017
1986.00,0.0017
1985.00,0.0018
1984.00,0.0018
1983.00,0.0018
1982.00,0.0017
1981.00,0.0016
1980.00,0.0016
1979.00,0.0016
1978.00,0.0016
1977.00,0.0016
1976.00,0.0016
1975.00,0.0015
1974.00,0.0016
1973.00,0.0017
1972.00,0.0019
1971.00,0.0019
1970.00,0.0019
1969.00,0.0019
1968.00,0.0020
1967.00,0.0020
1966.00,0.0020
1965.00,0.0021
1964.00,0.0021
1963.00,0.0021
1962.00,0.0021
1961.00,0.0021
1960.00,0.0021
1959.00,0.0020
1958.00,0.0019
1957.00,0.0019
1956.00,0.0019
1955.00,0.0019
1954.00,0.0019
1953.00,0.0019
1952.00,0.0018
1951.00,0.0018
1950.00,0.0017
1949.00,0.0017
1948.00,0.0017
1947.00,0.0018
1946.00,0.0019
1945.00,0.0019
1944.00,0.0019
1943.00,0.0018
1942.00,0.0017
1941.00,0.0017
1940.00,0.0018
1939.00,0.0018
1938.00,0.0018
1937.00,0.0017
1936.00,0.0017
1935.00,0.0016
1934.00,0.0016
1933.00,0.0017
1932.00,0.0017
1931.00,0.0017
1930.00,0.0017
1929.00,0.0017
1928.00,0.0017
1927.00,0.0017
1926.00,0.0018
1925.00,0.0018
1924.00,0.0018
1923.00,0.0018
1922.00,0.0018
1921.00,0.0019
1920.00,0.0019
1919.00,0.0020
1918.00,0.0020
1917.00,0.0020
1916.00,0.0020
1915.00,0.0020
1914.00,0.0020
1913.00,0.0020
1912.00,0.0020
1911.00,0.0020
1910.00,0.0020
1909.00,0.0021
1908.00,0.0021
1907.00,0.0021
1906.00,0.0020
1905.00,0.0019
1904.00,0.0019
1903.00,0.0019
1902.00,0.0019
1901.00,0.0019
1900.00,0.0020
1899.00,0.0021
1898.00,0.0021
1897.00,0.0020
1896.00,0.0019
1895.00,0.0019
1894.00,0.0019
1893.00,0.0019
1892.00,0.0020
1891.00,0.0020
1890.00,0.0020
1889.00,0.0020
1888.00,0.0020
1887.00,0.0020
1886.00,0.0020
1885.00,0.0019
1884.00,0.0019
1883.00,0.0018
1882.00,0.0018
1881.00,0.0018
1880.00,0.0018
1879.00,0.0018
1878.00,0.0018
1877.00,0.0019
1876.00,0.0019
1875.00,0.0019
1874.00,0.0019
1873.00,0.0019
1872.00,0.0019
1871.00,0.0020
1870.00,0.0020
1869.00,0.0020
1868.00,0.0020
1867.00,0.0020
1866.00,0.0020
1865.00,0.0020
1864.00,0.0020
1863.00,0.0020
1862.00,0.0020
1861.00,0.0020
1860.00,0.0020
1859.00,0.0021
1858.00,0.0021
1857.00,0.0021
1856.00,0.0021
1855.00,0.0021
1854.00,0.0021
1853.00,0.0021
1852.00,0.0021
1851.00,0.0021
1850.00,0.0022
1849.00,0.0022
1848.00,0.0022
1847.00,0.0022
1846.00,0.0023
1845.00,0.0023
1844.00,0.0023
1843.00,0.0022
1842.00,0.0022
1841.00,0.0022
1840.00,0.0022
1839.00,0.0022
1838.00,0.0022
1837.00,0.0023
1836.00,0.0023
1835.00,0.0023
1834.00,0.0023
1833.00,0.0023
1832.00,0.0023
1831.00,0.0023
1830.00,0.0024
1829.00,0.0024
1828.00,0.0024
1827.00,0.0024
1826.00,0.0023
1825.00,0.0023
1824.00,0.0022
1823.00,0.0022
1822.00,0.0023
1821.00,0.0024
1820.00,0.0024
1819.00,0.0024
1818.00,0.0024
1817.00,0.0025
1816.00,0.0025
1815.00,0.0025
1814.00,0.0025
1813.00,0.0025
1812.00,0.0025
1811.00,0.0025
1810.00,0.0025
1809.00,0.0024
1808.00,0.0024
1807.00,0.0024
1806.00,0.0024
1805.00,0.0025
1804.00,0.0025
1803.00,0.0026
1802.00,0.0026
1801.00,0.0027
1800.00,0.0028
1799.00,0.0028
1798.00,0.0028
1797.00,0.0028
1796.00,0.0028
1795.00,0.0028
1794.00,0.0028
1793.00,0.0028
1792.00,0.0029
1791.00,0.0029
1790.00,0.0029
1789.00,0.0029
1788.00,0.0029
1787.00,0.0029
1786.00,0.0029
1785.00,0.0029
1784.00,0.0029
1783.00,0.0030
1782.00,0.0030
1781.00,0.0030
1780.00,0.0031
1779.00,0.0031
1778.00,0.0031
1777.00,0.0032
1776.00,0.0032
1775.00,0.0032
1774.00,0.0032
1773.00,0.0032
1772.00,0.0033
1771.00,0.0033
1770.00,0.0033
1769.00,0.0033
1768.00,0.0033
1767.00,0.0033
1766.00,0.0033
1765.00,0.0033
1764.00,0.0033
1763.00,0.0033
1762.00,0.0033
1761.00,0.0033
1760.00,0.0033
1759.00,0.0033
1758.00,0.0033
1757.00,0.0034
1756.00,0.0034
1755.00,0.0033
1754.00,0.0033
1753.00,0.0033
1752.00,0.0033
1751.00,0.0033
1750.00,0.0033
1749.00,0.0034
1748.00,0.0034
1747.00,0.0034
1746.00,0.0034
1745.00,0.0034
1744.00,0.0034
1743.00,0.0034
1742.00,0.0034
1741.00,0.0034
1740.00,0.0035
1739.00,0.0035
1738.00,0.0035
1737.00,0.0035
1736.00,0.0035
1735.00,0.0035
1734.00,0.0035
1733.00,0.0034
1732.00,0.0033
1731.00,0.0033
1730.00,0.0034
1729.00,0.0034
1728.00,0.0035
1727.00,0.0036
1726.00,0.0036
1725.00,0.0037
1724.00,0.0038
1723.00,0.0039
1722.00,0.0040
1721.00,0.0041
1720.00,0.0042
1719.00,0.0042
1718.00,0.0042
1717.00,0.0043
1716.00,0.0044
1715.00,0.0045
1714.00,0.0045
1713.00,0.0046
1712.00,0.0047
1711.00,0.0048
1710.00,0.0048
1709.00,0.0049
1708.00,0.0050
1707.00,0.0051
1706.00,0.0052
1705.00,0.0052
1704.00,0.0053
1703.00,0.0054
1702.00,0.0054
1701.00,0.0055
1700.00,0.0055
1699.00,0.0056
1698.00,0.0057
1697.00,0.0058
1696.00,0.0059
1695.00,0.0060
1694.00,0.0061
1693.00,0.0061
1692.00,0.0062
1691.00,0.0063
1690.00,0.0064
1689.00,0.0065
1688.00,0.0066
1687.00,0.0067
1686.00,0.0067
1685.00,0.0068
1684.00,0.0069
1683.00,0.0069
1682.00,0.0070
1681.00,0.0071
1680.00,0.0072
1679.00,0.0073
1678.00,0.0073
1677.00,0.0075
1676.00,0.0076
1675.00,0.0078
1674.00,0.0079
1673.00,0.0080
1672.00,0.0080
1671.00,0.0081
1670.00,0.0083
1669.00,0.0084
1668.00,0.0085
1667.00,0.0086
1666.00,0.0086
1665.00,0.0087
1664.00,0.0088
1663.00,0.0089
1662.00,0.0089
1661.00,0.0090
1660.00,0.0090
1659.00,0.0090
1658.00,0.0090
1657.00,0.0091
1656.00,0.0091
1655.00,0.0092
1654.00,0.0092
1653.00,0.0093
1652.00,0.0093
1651.00,0.0093
1650.00,0.0093
1649.00,0.0093
1648.00,0.0093
1647.00,0.0092
1646.00,0.0092
1645.00,0.0091
1644.00,0.0091
1643.00,0.0091
1642.00,0.0091
1641.00,0.0091
1640.00,0.0091
1639.00,0.0091
1638.00,0.0090
1637.00,0.0090
1636.00,0.0090
1635.00,0.0090
1634.00,0.0090
1633.00,0.0089
1632.00,0.0089
1631.00,0.0089
1630.00,0.0088
1629.00,0.0087
1628.00,0.0087
1627.00,0.0086
1626.00,0.0085
1625.00,0.0085
1624.00,0.0085
1623.00,0.0084
1622.00,0.0084
1621.00,0.0083
1620.00,0.0083
1619.00,0.0083
1618.00,0.0082
1617.00,0.0080
1616.00,0.0079
1615.00,0.0077
1614.00,0.0075
1613.00,0.0074
1612.00,0.0074
1611.00,0.0073
1610.00,0.0073
1609.00,0.0074
1608.00,0.0075
1607.00,0.0076
1606.00,0.0077
1605.00,0.0078
1604.00,0.0079
1603.00,0.0080
1602.00,0.0081
1601.00,0.0082
1600.00,0.0083
1599.00,0.0084
1598.00,0.0085
1597.00,0.0086
1596.00,0.0087
1595.00,0.0089
1594.00,0.0089
1593.00,0.0090
1592.00,0.0090
1591.00,0.0090
1590.00,0.0090
1589.00,0.0090
1588.00,0.0091
1587.00,0.0091
1586.00,0.0092
1585.00,0.0092
1584.00,0.0092
1583.00,0.0092
1582.00,0.0092
1581.00,0.0092
1580.00,0.0093
1579.00,0.0094
1578.00,0.0095
1577.00,0.0096
1576.00,0.0098
1575.00,0.0100
1574.00,0.0101
1573.00,0.0102
1572.00,0.0102
1571.00,0.0103
1570.00,0.0104
1569.00,0.0104
1568.00,0.0105
1567.00,0.0106
1566.00,0.0107
1565.00,0.0108
1564.00,0.0109
1563.00,0.0109
1562.00,0.0110
1561.00,0.0110
1560.00,0.0112
1559.00,0.0113
1558.00,0.0114
1557.00,0.0114
1556.00,0.0116
1555.00,0.0117
1554.00,0.0117
1553.00,0.0118
1552.00,0.0120
1551.00,0.0121
1550.00,0.0122
1549.00,0.0123
1548.00,0.0124
1547.00,0.0125
1546.00,0.0126
1545.00,0.0128
1544.00,0.0129
1543.00,0.0130
1542.00,0.0131
1541.00,0.0133
1540.00,0.0135
1539.00,0.0137
1538.00,0.0138
1537.00,0.0139
1536.00,0.0140
1535.00,0.0141
1534.00,0.0143
1533.00,0.0144
1532.00,0.0146
1531.00,0.0147
1530.00,0.0148
1529.00,0.0149
1528.00,0.0151
1527.00,0.0153
1526.00,0.0155
1525.00,0.0156
1524.00,0.0157
1523.00,0.0158
1522.00,0.0158
1521.00,0.0159
1520.00,0.0159
1519.00,0.0158
1518.00,0.0155
1517.00,0.0151
1516.00,0.0147
1515.00,0.0143
1514.00,0.0140
1513.00,0.0139
1512.00,0.0141
1511.00,0.0145
1510.00,0.0150
1509.00,0.0158
1508.00,0.0168
1507.00,0.0181
1506.00,0.0192
1505.00,0.0201
1504.00,0.0208
1503.00,0.0214
1502.00,0.0219
1501.00,0.0225
1500.00,0.0232
1499.00,0.0239
1498.00,0.0246
1497.00,0.0255
1496.00,0.0265
1495.00,0.0273
1494.00,0.0280
1493.00,0.0288
1492.00,0.0297
1491.00,0.0308
1490.00,0.0320
1489.00,0.0333
1488.00,0.0347
1487.00,0.0360
1486.00,0.0374
1485.00,0.0389
1484.00,0.0405
1483.00,0.0422
1482.00,0.0440
1481.00,0.0460
1480.00,0.0479
1479.00,0.0497
1478.00,0.0515
1477.00,0.0535
1476.00,0.0555
1475.00,0.0574
1474.00,0.0596
1473.00,0.0623
1472.00,0.0650
1471.00,0.0673
1470.00,0.0692
1469.00,0.0709
1468.00,0.0726
1467.00,0.0743
1466.00,0.0762
1465.00,0.0782
1464.00,0.0801
1463.00,0.0815
1462.00,0.0825
1461.00,0.0835
1460.00,0.0843
1459.00,0.0850
1458.00,0.0858
1457.00,0.0867
1456.00,0.0872
1455.00,0.0873
1454.00,0.0871
1453.00,0.0869
1452.00,0.0867
1451.00,0.0865
1450.00,0.0862
1449.00,0.0862
1448.00,0.0862
1447.00,0.0862
1446.00,0.0863
1445.00,0.0865
1444.00,0.0868
1443.00,0.0872
1442.00,0.0877
1441.00,0.0882
1440.00,0.0887
1439.00,0.0893
1438.00,0.0901
1437.00,0.0911
1436.00,0.0920
1435.00,0.0927
1434.00,0.0933
1433.00,0.0939
1432.00,0.0946
1431.00,0.0954
1430.00,0.0961
1429.00,0.0969
1428.00,0.0976
1427.00,0.0981
1426.00,0.0987
1425.00,0.0993
1424.00,0.1000
1423.00,0.1004
1422.00,0.1008
1421.00,0.1012
1420.00,0.1016
1419.00,0.1021
1418.00,0.1025
1417.00,0.1028
1416.00,0.1029
1415.00,0.1029
1414.00,0.1029
1413.00,0.1030
1412.00,0.1029
1411.00,0.1028
1410.00,0.1027
1409.00,0.1025
1408.00,0.1022
1407.00,0.1018
1406.00,0.1014
1405.00,0.1010
1404.00,0.1004
1403.00,0.0998
1402.00,0.0991
1401.00,0.0984
1400.00,0.0976
1399.00,0.0967
1398.00,0.0958
1397.00,0.0950
1396.00,0.0942
1395.00,0.0935
1394.00,0.0928
1393.00,0.0924
1392.00,0.0920
1391.00,0.0917
1390.00,0.0915
1389.00,0.0914
1388.00,0.0914
1387.00,0.0915
1386.00,0.0917
1385.00,0.0919
1384.00,0.0922
1383.00,0.0926
1382.00,0.0930
1381.00,0.0934
1380.00,0.0937
1379.00,0.0939
1378.00,0.0940
1377.00,0.0940
1376.00,0.0938
1375.00,0.0934
1374.00,0.0928
1373.00,0.0920
1372.00,0.0912
1371.00,0.0902
1370.00,0.0892
1369.00,0.0881
1368.00,0.0871
1367.00,0.0860
1366.00,0.0849
1365.00,0.0840
1364.00,0.0833
1363.00,0.0826
1362.00,0.0821
1361.00,0.0816
1360.00,0.0812
1359.00,0.0808
1358.00,0.0806
1357.00,0.0804
1356.00,0.0802
1355.00,0.0801
1354.00,0.0800
1353.00,0.0801
1352.00,0.0802
1351.00,0.0804
1350.00,0.0806
1349.00,0.0809
1348.00,0.0813
1347.00,0.0819
1346.00,0.0825
1345.00,0.0833
1344.00,0.0841
1343.00,0.0849
1342.00,0.0856
1341.00,0.0865
1340.00,0.0873
1339.00,0.0881
1338.00,0.0889
1337.00,0.0895
1336.00,0.0901
1335.00,0.0905
1334.00,0.0908
1333.00,0.0911
1332.00,0.0913
1331.00,0.0914
1330.00,0.0915
1329.00,0.0914
1328.00,0.0912
1327.00,0.0909
1326.00,0.0906
1325.00,0.0902
1324.00,0.0898
1323.00,0.0893
1322.00,0.0888
1321.00,0.0883
1320.00,0.0877
1319.00,0.0870
1318.00,0.0863
1317.00,0.0855
1316.00,0.0847
1315.00,0.0839
1314.00,0.0831
1313.00,0.0824
1312.00,0.0817
1311.00,0.0810
1310.00,0.0804
1309.00,0.0799
1308.00,0.0794
1307.00,0.0790
1306.00,0.0787
1305.00,0.0785
1304.00,0.0784
1303.00,0.0782
1302.00,0.0782
1301.00,0.0782
1300.00,0.0782
1299.00,0.0782
1298.00,0.0783
1297.00,0.0783
1296.00,0.0784
1295.00,0.0785
1294.00,0.0786
1293.00,0.0787
1292.00,0.0787
1291.00,0.0787
1290.00,0.0787
1289.00,0.0787
1288.00,0.0786
1287.00,0.0785
1286.00,0.0783
1285.00,0.0781
1284.00,0.0778
1283.00,0.0775
1282.00,0.0771
1281.00,0.0768
1280.00,0.0764
1279.00,0.0760
1278.00,0.0755
1277.00,0.0751
1276.00,0.0745
1275.00,0.0740
1274.00,0.0734
1273.00,0.0728
1272.00,0.0722
1271.00,0.0716
1270.00,0.0709
1269.00,0.0702
1268.00,0.0696
1267.00,0.0689
1266.00,0.0683
1265.00,0.0676
1264.00,0.0669
1263.00,0.0663
1262.00,0.0656
1261.00,0.0650
1260.00,0.0644
1259.00,0.0638
1258.00,0.0633
1257.00,0.0629
1256.00,0.0625
1255.00,0.0622
1254.00,0.0621
1253.00,0.0621
1252.00,0.0621
1251.00,0.0622
1250.00,0.0624
1249.00,0.0627
1248.00,0.0631
1247.00,0.0636
1246.00,0.0642
1245.00,0.0649
1244.00,0.0657
1243.00,0.0666
1242.00,0.0675
1241.00,0.0684
1240.00,0.0694
1239.00,0.0702
1238.00,0.0710
1237.00,0.0717
1236.00,0.0724
1235.00,0.0729
1234.00,0.0734
1233.00,0.0737
1232.00,0.0740
1231.00,0.0742
1230.00,0.0744
1229.00,0.0746
1228.00,0.0747
1227.00,0.0748
1226.00,0.0747
1225.00,0.0747
1224.00,0.0746
1223.00,0.0746
1222.00,0.0745
1221.00,0.0744
1220.00,0.0742
1219.00,0.0740
1218.00,0.0738
1217.00,0.0736
1216.00,0.0734
1215.00,0.0732
1214.00,0.0730
1213.00,0.0727
1212.00,0.0725
1211.00,0.0721
1210.00,0.0718
1209.00,0.0714
1208.00,0.0711
1207.00,0.0707
1206.00,0.0702
1205.00,0.0696
1204.00,0.0690
1203.00,0.0683
1202.00,0.0675
1201.00,0.0667
1200.00,0.0658
1199.00,0.0647
1198.00,0.0636
1197.00,0.0624
1196.00,0.0611
1195.00,0.0597
1194.00,0.0582
1193.00,0.0567
1192.00,0.0550
1191.00,0.0533
1190.00,0.0516
1189.00,0.0500
1188.00,0.0483
1187.00,0.0468
1186.00,0.0453
1185.00,0.0440
1184.00,0.0429
1183.00,0.0418
1182.00,0.0408
1181.00,0.0398
1180.00,0.0389
1179.00,0.0380
1178.00,0.0372
1177.00,0.0363
1176.00,0.0356
1175.00,0.0348
1174.00,0.0342
1173.00,0.0336
1172.00,0.0331
1171.00,0.0326
1170.00,0.0321
1169.00,0.0317
1168.00,0.0313
1167.00,0.0310
1166.00,0.0307
1165.00,0.0305
1164.00,0.0302
1163.00,0.0300
1162.00,0.0298
1161.00,0.0296
1160.00,0.0296
1159.00,0.0298
1158.00,0.0302
1157.00,0.0308
1156.00,0.0315
1155.00,0.0326
1154.00,0.0340
1153.00,0.0357
1152.00,0.0379
1151.00,0.0404
1150.00,0.0433
1149.00,0.0463
1148.00,0.0495
1147.00,0.0528
1146.00,0.0559
1145.00,0.0590
1144.00,0.0618
1143.00,0.0644
1142.00,0.0669
1141.00,0.0692
1140.00,0.0713
1139.00,0.0732
1138.00,0.0747
1137.00,0.0760
1136.00,0.0771
1135.00,0.0779
1134.00,0.0786
1133.00,0.0792
1132.00,0.0798
1131.00,0.0805
1130.00,0.0815
1129.00,0.0830
1128.00,0.0849
1127.00,0.0875
1126.00,0.0906
1125.00,0.0945
1124.00,0.0988
1123.00,0.1037
1122.00,0.1089
1121.00,0.1144
1120.00,0.1202
1119.00,0.1260
1118.00,0.1317
1117.00,0.1372
1116.00,0.1423
1115.00,0.1468
1114.00,0.1506
1113.00,0.1537
1112.00,0.1561
1111.00,0.1577
1110.00,0.1585
1109.00,0.1586
1108.00,0.1580
1107.00,0.1568
1106.00,0.1551
1105.00,0.1531
1104.00,0.1510
1103.00,0.1487
1102.00,0.1464
1101.00,0.1442
1100.00,0.1422
1099.00,0.1405
1098.00,0.1391
1097.00,0.1381
1096.00,0.1374
1095.00,0.1369
1094.00,0.1368
1093.00,0.1370
1092.00,0.1376
1091.00,0.1384
1090.00,0.1395
1089.00,0.1408
1088.00,0.1424
1087.00,0.1441
1086.00,0.1459
1085.00,0.1479
1084.00,0.1499
1083.00,0.1518
1082.00,0.1537
1081.00,0.1555
1080.00,0.1573
1079.00,0.1589
1078.00,0.1603
1077.00,0.1616
1076.00,0.1630
1075.00,0.1642
1074.00,0.1654
1073.00,0.1667
1072.00,0.1682
1071.00,0.1700
1070.00,0.1720
1069.00,0.1745
1068.00,0.1775
1067.00,0.1809
1066.00,0.1850
1065.00,0.1897
1064.00,0.1953
1063.00,0.2014
1062.00,0.2081
1061.00,0.2157
1060.00,0.2240
1059.00,0.2330
1058.00,0.2427
1057.00,0.2530
1056.00,0.2641
1055.00,0.2758
1054.00,0.2880
1053.00,0.3009
1052.00,0.3145
1051.00,0.3285
1050.00,0.3429
1049.00,0.3578
1048.00,0.3729
1047.00,0.3876
1046.00,0.4020
1045.00,0.4162
1044.00,0.4304
1043.00,0.4440
1042.00,0.4569
1041.00,0.4694
1040.00,0.4813
1039.00,0.4920
1038.00,0.5010
1037.00,0.5087
1036.00,0.5149
1035.00,0.5189
1034.00,0.5207
1033.00,0.5205
1032.00,0.5184
1031.00,0.5139
1030.00,0.5070
1029.00,0.4982
1028.00,0.4875
1027.00,0.4744
1026.00,0.4591
1025.00,0.4425
1024.00,0.4247
1023.00,0.4056
1022.00,0.3853
1021.00,0.3644
1020.00,0.3433
1019.00,0.3221
1018.00,0.3013
1017.00,0.2813
1016.00,0.2625
1015.00,0.2449
1014.00,0.2289
1013.00,0.2148
1012.00,0.2028
1011.00,0.1928
1010.00,0.1847
1009.00,0.1787
1008.00,0.1747
1007.00,0.1724
1006.00,0.1716
1005.00,0.1723
1004.00,0.1741
1003.00,0.1768
1002.00,0.1804
1001.00,0.1846
1000.00,0.1893
999.00,0.1942
998.00,0.1994
997.00,0.2048
996.00,0.2101
995.00,0.2151
994.00,0.2193
993.00,0.2226
992.00,0.2246
991.00,0.2249
990.00,0.2233
989.00,0.2198
988.00,0.2146
987.00,0.2079
986.00,0.2003
985.00,0.1923
984.00,0.1846
983.00,0.1775
982.00,0.1712
981.00,0.1659
980.00,0.1615
979.00,0.1578
978.00,0.1545
977.00,0.1515
976.00,0.1486
975.00,0.1456
974.00,0.1420
973.00,0.1380
972.00,0.1333
971.00,0.1281
970.00,0.1224
969.00,0.1163
968.00,0.1100
967.00,0.1036
966.00,0.0973
965.00,0.0914
964.00,0.0859
963.00,0.0809
962.00,0.0766
961.00,0.0729
960.00,0.0699
959.00,0.0675
958.00,0.0659
957.00,0.0651
956.00,0.0650
955.00,0.0656
954.00,0.0667
953.00,0.0684
952.00,0.0706
951.00,0.0730
950.00,0.0754
949.00,0.0776
948.00,0.0793
947.00,0.0807
946.00,0.0816
945.00,0.0823
944.00,0.0831
943.00,0.0841
942.00,0.0855
941.00,0.0878
940.00,0.0910
939.00,0.0952
938.00,0.1003
937.00,0.1063
936.00,0.1130
935.00,0.1201
934.00,0.1273
933.00,0.1345
932.00,0.1416
931.00,0.1485
930.00,0.1551
929.00,0.1614
928.00,0.1674
927.00,0.1728
926.00,0.1776
925.00,0.1815
924.00,0.1846
923.00,0.1865
922.00,0.1873
921.00,0.1869
920.00,0.1854
919.00,0.1828
918.00,0.1791
917.00,0.1746
916.00,0.1693
915.00,0.1632
914.00,0.1566
913.00,0.1495
912.00,0.1423
911.00,0.1351
910.00,0.1278
909.00,0.1208
908.00,0.1140
907.00,0.1075
906.00,0.1013
905.00,0.0956
904.00,0.0903
903.00,0.0852
902.00,0.0805
901.00,0.0762
900.00,0.0723
899.00,0.0686
898.00,0.0654
897.00,0.0624
896.00,0.0599
895.00,0.0576
894.00,0.0557
893.00,0.0540
892.00,0.0528
891.00,0.0518
890.00,0.0511
889.00,0.0505
888.00,0.0502
887.00,0.0502
886.00,0.0504
885.00,0.0509
884.00,0.0517
883.00,0.0529
882.00,0.0543
881.00,0.0562
880.00,0.0584
879.00,0.0609
878.00,0.0637
877.00,0.0670
876.00,0.0705
875.00,0.0743
874.00,0.0781
873.00,0.0818
872.00,0.0853
871.00,0.0885
870.00,0.0915
869.00,0.0942
868.00,0.0966
867.00,0.0986
866.00,0.1001
865.00,0.1013
864.00,0.1022
863.00,0.1030
862.00,0.1037
861.00,0.1045
860.00,0.1055
859.00,0.1065
858.00,0.1077
857.00,0.1090
856.00,0.1106
855.00,0.1123
854.00,0.1141
853.00,0.1159
852.00,0.1178
851.00,0.1198
850.00,0.1221
849.00,0.1248
848.00,0.1277
847.00,0.1310
846.00,0.1347
845.00,0.1389
844.00,0.1433
843.00,0.1478
842.00,0.1520
841.00,0.1555
840.00,0.1576
839.00,0.1579
838.00,0.1560
837.00,0.1519
836.00,0.1459
835.00,0.1384
834.00,0.1300
833.00,0.1215
832.00,0.1135
831.00,0.1065
830.00,0.1006
829.00,0.0959
828.00,0.0924
827.00,0.0898
826.00,0.0882
825.00,0.0874
824.00,0.0871
823.00,0.0872
822.00,0.0873
821.00,0.0874
820.00,0.0876
819.00,0.0877
818.00,0.0876
817.00,0.0874
816.00,0.0871
815.00,0.0870
814.00,0.0869
813.00,0.0870
812.00,0.0874
811.00,0.0881
810.00,0.0891
809.00,0.0903
808.00,0.0917
807.00,0.0929
806.00,0.0941
805.00,0.0950
804.00,0.0957
803.00,0.0959
802.00,0.0956
801.00,0.0951
800.00,0.0946
799.00,0.0939
798.00,0.0932
797.00,0.0926
796.00,0.0921
795.00,0.0919
794.00,0.0919
793.00,0.0920
792.00,0.0924
791.00,0.0929
790.00,0.0935
789.00,0.0942
788.00,0.0950
787.00,0.0957
786.00,0.0965
785.00,0.0972
784.00,0.0980
783.00,0.0987
782.00,0.0994
781.00,0.1001
780.00,0.1007
779.00,0.1014
778.00,0.1020
777.00,0.1027
776.00,0.1034
775.00,0.1043
774.00,0.1051
773.00,0.1060
772.00,0.1069
771.00,0.1077
770.00,0.1084
769.00,0.1091
768.00,0.1100
767.00,0.1109
766.00,0.1119
765.00,0.1129
764.00,0.1138
763.00,0.1146
762.00,0.1153
761.00,0.1162
760.00,0.1172
759.00,0.1182
758.00,0.1191
757.00,0.1200
756.00,0.1209
755.00,0.1219
754.00,0.1228
753.00,0.1239
752.00,0.1251
751.00,0.1262
750.00,0.1272
749.00,0.1280
748.00,0.1289
747.00,0.1299
746.00,0.1310
745.00,0.1322
744.00,0.1335
743.00,0.1347
742.00,0.1358
741.00,0.1369
740.00,0.1381
739.00,0.1393
738.00,0.1403
737.00,0.1414
736.00,0.1425
735.00,0.1437
734.00,0.1447
733.00,0.1458
732.00,0.1469
731.00,0.1479
730.00,0.1490
729.00,0.1502
728.00,0.1515
727.00,0.1528
726.00,0.1540
725.00,0.1553
724.00,0.1566
723.00,0.1578
722.00,0.1589
721.00,0.1600
720.00,0.1611
719.00,0.1622
718.00,0.1633
717.00,0.1645
716.00,0.1657
715.00,0.1670
714.00,0.1682
713.00,0.1694
712.00,0.1707
711.00,0.1720
710.00,0.1733
709.00,0.1746
708.00,0.1760
707.00,0.1774
706.00,0.1785
705.00,0.1797
704.00,0.1810
703.00,0.1823
702.00,0.1836
701.00,0.1850
700.00,0.1864
699.00,0.1877
698.00,0.1890
697.00,0.1904
696.00,0.1920
695.00,0.1937
694.00,0.1955
693.00,0.1974
692.00,0.1995
691.00,0.2014
690.00,0.2031
689.00,0.2050
688.00,0.2073
687.00,0.2097
686.00,0.2122
685.00,0.2148
684.00,0.2176
683.00,0.2204
682.00,0.2232
681.00,0.2260
680.00,0.2288
679.00,0.2314
678.00,0.2340
677.00,0.2365
676.00,0.2390
675.00,0.2410
674.00,0.2426
673.00,0.2440
672.00,0.2453
671.00,0.2462
670.00,0.2466
669.00,0.2474
668.00,0.2490
667.00,0.2503
666.00,0.2510
665.00,0.2515
664.00,0.2524
663.00,0.2533
662.00,0.2540
661.00,0.2548
660.00,0.2559
659.00,0.2570
658.00,0.2580
657.00,0.2591
656.00,0.2605
655.00,0.2615
654.00,0.2619
653.00,0.2622
652.00,0.2627
651.00,0.2630
650.00,0.2630
