Created as New Dataset,Sample 004 By CHEM 370 Date Monday, March 02 2020
cm-1,A
4000.00,0.0006
3999.00,0.0006
3998.00,0.0006
3997.00,0.0006
3996.00,0.0006
3995.00,0.0006
3994.00,0.0006
3993.00,0.0006
3992.00,0.0005
3991.00,0.0005
3990.00,0.0005
3989.00,0.0005
3988.00,0.0006
3987.00,0.0006
3986.00,0.0006
3985.00,0.0006
3984.00,0.0005
3983.00,0.0005
3982.00,0.0005
3981.00,0.0006
3980.00,0.0006
3979.00,0.0006
3978.00,0.0006
3977.00,0.0006
3976.00,0.0006
3975.00,0.0006
3974.00,0.0006
3973.00,0.0006
3972.00,0.0006
3971.00,0.0006
3970.00,0.0006
3969.00,0.0005
3968.00,0.0005
3967.00,0.0005
3966.00,0.0005
3965.00,0.0004
3964.00,0.0004
3963.00,0.0004
3962.00,0.0005
3961.00,0.0005
3960.00,0.0005
3959.00,0.0005
3958.00,0.0005
3957.00,0.0005
3956.00,0.0006
3955.00,0.0006
3954.00,0.0006
3953.00,0.0005
3952.00,0.0005
3951.00,0.0004
3950.00,0.0004
3949.00,0.0004
3948.00,0.0004
3947.00,0.0004
3946.00,0.0004
3945.00,0.0004
3944.00,0.0004
3943.00,0.0003
3942.00,0.0003
3941.00,0.0003
3940.00,0.0003
3939.00,0.0004
3938.00,0.0004
3937.00,0.0004
3936.00,0.0004
3935.00,0.0004
3934.00,0.0004
3933.00,0.0004
3932.00,0.0004
3931.00,0.0003
3930.00,0.0003
3929.00,0.0003
3928.00,0.0003
3927.00,0.0003
3926.00,0.0003
3925.00,0.0003
3924.00,0.0003
3923.00,0.0003
3922.00,0.0003
3921.00,0.0003
3920.00,0.0003
3919.00,0.0003
3918.00,0.0003
3917.00,0.0003
3916.00,0.0003
3915.00,0.0003
3914.00,0.0003
3913.00,0.0003
3912.00,0.0003
3911.00,0.0003
3910.00,0.0002
3909.00,0.0003
3908.00,0.0003
3907.00,0.0003
3906.00,0.0004
3905.00,0.0004
3904.00,0.0003
3903.00,0.0003
3902.00,0.0003
3901.00,0.0003
3900.00,0.0003
3899.00,0.0003
3898.00,0.0003
3897.00,0.0003
3896.00,0.0003
3895.00,0.0003
3894.00,0.0003
3893.00,0.0002
3892.00,0.0002
3891.00,0.0002
3890.00,0.0002
3889.00,0.0002
3888.00,0.0002
3887.00,0.0003
3886.00,0.0003
3885.00,0.0003
3884.00,0.0003
3883.00,0.0003
3882.00,0.0003
3881.00,0.0003
3880.00,0.0003
3879.00,0.0002
3878.00,0.0002
3877.00,0.0002
3876.00,0.0002
3875.00,0.0002
3874.00,0.0002
3873.00,0.0002
3872.00,0.0002
3871.00,0.0002
3870.00,0.0003
3869.00,0.0003
3868.00,0.0003
3867.00,0.0003
3866.00,0.0003
3865.00,0.0003
3864.00,0.0003
3863.00,0.0003
3862.00,0.0003
3861.00,0.0003
3860.00,0.0003
3859.00,0.0002
3858.00,0.0002
3857.00,0.0002
3856.00,0.0002
3855.00,0.0002
3854.00,0.0002
3853.00,0.0002
3852.00,0.0002
3851.00,0.0002
3850.00,0.0002
3849.00,0.0002
3848.00,0.0002
3847.00,0.0002
3846.00,0.0002
3845.00,0.0001
3844.00,0.0001
3843.00,0.0001
3842.00,0.0001
3841.00,0.0001
3840.00,0.0001
3839.00,0.0002
3838.00,0.0002
3837.00,0.0002
3836.00,0.0002
3835.00,0.0002
3834.00,0.0002
3833.00,0.0003
3832.00,0.0003
3831.00,0.0003
3830.00,0.0003
3829.00,0.0003
3828.00,0.0002
3827.00,0.0002
3826.00,0.0002
3825.00,0.0002
3824.00,0.0002
3823.00,0.0002
3822.00,0.0003
3821.00,0.0003
3820.00,0.0002
3819.00,0.0002
3818.00,0.0001
3817.00,0.0001
3816.00,0.0001
3815.00,0.0002
3814.00,0.0002
3813.00,0.0003
3812.00,0.0003
3811.00,0.0003
3810.00,0.0003
3809.00,0.0002
3808.00,0.0002
3807.00,0.0002
3806.00,0.0002
3805.00,0.0002
3804.00,0.0002
3803.00,0.0002
3802.00,0.0002
3801.00,0.0003
3800.00,0.0003
3799.00,0.0003
3798.00,0.0002
3797.00,0.0002
3796.00,0.0002
3795.00,0.0003
3794.00,0.0003
3793.00,0.0003
3792.00,0.0003
3791.00,0.0003
3790.00,0.0003
3789.00,0.0003
3788.00,0.0003
3787.00,0.0003
3786.00,0.0003
3785.00,0.0003
3784.00,0.0002
3783.00,0.0002
3782.00,0.0002
3781.00,0.0003
3780.00,0.0003
3779.00,0.0003
3778.00,0.0003
3777.00,0.0003
3776.00,0.0003
3775.00,0.0002
3774.00,0.0002
3773.00,0.0003
3772.00,0.0003
3771.00,0.0003
3770.00,0.0002
3769.00,0.0002
3768.00,0.0002
3767.00,0.0002
3766.00,0.0002
3765.00,0.0002
3764.00,0.0002
3763.00,0.0002
3762.00,0.0002
3761.00,0.0002
3760.00,0.0003
3759.00,0.0003
3758.00,0.0003
3757.00,0.0003
3756.00,0.0003
3755.00,0.0003
3754.00,0.0003
3753.00,0.0002
3752.00,0.0002
3751.00,0.0002
3750.00,0.0002
3749.00,0.0002
3748.00,0.0002
3747.00,0.0003
3746.00,0.0004
3745.00,0.0004
3744.00,0.0004
3743.00,0.0004
3742.00,0.0003
3741.00,0.0003
3740.00,0.0003
3739.00,0.0003
3738.00,0.0003
3737.00,0.0003
3736.00,0.0004
3735.00,0.0004
3734.00,0.0004
3733.00,0.0004
3732.00,0.0004
3731.00,0.0004
3730.00,0.0004
3729.00,0.0003
3728.00,0.0003
3727.00,0.0003
3726.00,0.0003
3725.00,0.0003
3724.00,0.0003
3723.00,0.0003
3722.00,0.0003
3721.00,0.0003
3720.00,0.0003
3719.00,0.0004
3718.00,0.0004
3717.00,0.0004
3716.00,0.0004
3715.00,0.0004
3714.00,0.0004
3713.00,0.0004
3712.00,0.0004
3711.00,0.0004
3710.00,0.0004
3709.00,0.0005
3708.00,0.0005
3707.00,0.0005
3706.00,0.0004
3705.00,0.0004
3704.00,0.0004
3703.00,0.0004
3702.00,0.0004
3701.00,0.0004
3700.00,0.0005
3699.00,0.0005
3698.00,0.0005
3697.00,0.0005
3696.00,0.0006
3695.00,0.0006
3694.00,0.0007
3693.00,0.0007
3692.00,0.0006
3691.00,0.0006
3690.00,0.0006
3689.00,0.0006
3688.00,0.0006
3687.00,0.0007
3686.00,0.0007
3685.00,0.0008
3684.00,0.0008
3683.00,0.0009
3682.00,0.0009
3681.00,0.0010
3680.00,0.0010
3679.00,0.0010
3678.00,0.0010
3677.00,0.0011
3676.00,0.0011
3675.00,0.0010
3674.00,0.0010
3673.00,0.0010
3672.00,0.0011
3671.00,0.0011
3670.00,0.0011
3669.00,0.0011
3668.00,0.0011
3667.00,0.0010
3666.00,0.0011
3665.00,0.0011
3664.00,0.0012
3663.00,0.0013
3662.00,0.0013
3661.00,0.0013
3660.00,0.0014
3659.00,0.0014
3658.00,0.0014
3657.00,0.0015
3656.00,0.0016
3655.00,0.0016
3654.00,0.0016
3653.00,0.0016
3652.00,0.0016
3651.00,0.0016
3650.00,0.0017
3649.00,0.0017
3648.00,0.0018
3647.00,0.0019
3646.00,0.0019
3645.00,0.0020
3644.00,0.0020
3643.00,0.0020
3642.00,0.0020
3641.00,0.0020
3640.00,0.0020
3639.00,0.0021
3638.00,0.0022
3637.00,0.0023
3636.00,0.0024
3635.00,0.0024
3634.00,0.0025
3633.00,0.0025
3632.00,0.0026
3631.00,0.0026
3630.00,0.0026
3629.00,0.0027
3628.00,0.0028
3627.00,0.0028
3626.00,0.0029
3625.00,0.0029
3624.00,0.0030
3623.00,0.0031
3622.00,0.0032
3621.00,0.0033
3620.00,0.0033
3619.00,0.0034
3618.00,0.0034
3617.00,0.0035
3616.00,0.0036
3615.00,0.0037
3614.00,0.0038
3613.00,0.0039
3612.00,0.0040
3611.00,0.0041
3610.00,0.0041
3609.00,0.0042
3608.00,0.0043
3607.00,0.0044
3606.00,0.0046
3605.00,0.0047
3604.00,0.0049
3603.00,0.0050
3602.00,0.0051
3601.00,0.0052
3600.00,0.0053
3599.00,0.0053
3598.00,0.0054
3597.00,0.0055
3596.00,0.0057
3595.00,0.0058
3594.00,0.0060
3593.00,0.0061
3592.00,0.0063
3591.00,0.0064
3590.00,0.0064
3589.00,0.0065
3588.00,0.0066
3587.00,0.0067
3586.00,0.0069
3585.00,0.0071
3584.00,0.0072
3583.00,0.0074
3582.00,0.0076
3581.00,0.0078
3580.00,0.0079
3579.00,0.0080
3578.00,0.0081
3577.00,0.0082
3576.00,0.0084
3575.00,0.0085
3574.00,0.0087
3573.00,0.0088
3572.00,0.0090
3571.00,0.0092
3570.00,0.0093
3569.00,0.0094
3568.00,0.0095
3567.00,0.0096
3566.00,0.0098
3565.00,0.0099
3564.00,0.0101
3563.00,0.0103
3562.00,0.0105
3561.00,0.0107
3560.00,0.0109
3559.00,0.0111
3558.00,0.0113
3557.00,0.0115
3556.00,0.0116
3555.00,0.0118
3554.00,0.0120
3553.00,0.0122
3552.00,0.0124
3551.00,0.0126
3550.00,0.0127
3549.00,0.0129
3548.00,0.0131
3547.00,0.0133
3546.00,0.0135
3545.00,0.0137
3544.00,0.0139
3543.00,0.0140
3542.00,0.0142
3541.00,0.0144
3540.00,0.0146
3539.00,0.0149
3538.00,0.0151
3537.00,0.0153
3536.00,0.0155
3535.00,0.0156
3534.00,0.0159
3533.00,0.0161
3532.00,0.0163
3531.00,0.0165
3530.00,0.0167
3529.00,0.0169
3528.00,0.0171
3527.00,0.0173
3526.00,0.0175
3525.00,0.0178
3524.00,0.0180
3523.00,0.0182
3522.00,0.0184
3521.00,0.0186
3520.00,0.0188
3519.00,0.0190
3518.00,0.0193
3517.00,0.0195
3516.00,0.0197
3515.00,0.0199
3514.00,0.0201
3513.00,0.0203
3512.00,0.0205
3511.00,0.0207
3510.00,0.0210
3509.00,0.0213
3508.00,0.0215
3507.00,0.0217
3506.00,0.0219
3505.00,0.0221
3504.00,0.0223
3503.00,0.0225
3502.00,0.0227
3501.00,0.0229
3500.00,0.0231
3499.00,0.0233
3498.00,0.0235
3497.00,0.0237
3496.00,0.0239
3495.00,0.0241
3494.00,0.0243
3493.00,0.0245
3492.00,0.0247
3491.00,0.0250
3490.00,0.0252
3489.00,0.0253
3488.00,0.0254
3487.00,0.0256
3486.00,0.0258
3485.00,0.0260
3484.00,0.0262
3483.00,0.0264
3482.00,0.0266
3481.00,0.0268
3480.00,0.0270
3479.00,0.0272
3478.00,0.0274
3477.00,0.0275
3476.00,0.0277
3475.00,0.0279
3474.00,0.0281
3473.00,0.0283
3472.00,0.0284
3471.00,0.0286
3470.00,0.0287
3469.00,0.0288
3468.00,0.0290
3467.00,0.0292
3466.00,0.0294
3465.00,0.0296
3464.00,0.0298
3463.00,0.0300
3462.00,0.0302
3461.00,0.0303
3460.00,0.0304
3459.00,0.0306
3458.00,0.0307
3457.00,0.0309
3456.00,0.0310
3455.00,0.0312
3454.00,0.0313
3453.00,0.0314
3452.00,0.0315
3451.00,0.0317
3450.00,0.0318
3449.00,0.0320
3448.00,0.0321
3447.00,0.0323
3446.00,0.0324
3445.00,0.0325
3444.00,0.0326
3443.00,0.0327
3442.00,0.0329
3441.00,0.0330
3440.00,0.0332
3439.00,0.0333
3438.00,0.0335
3437.00,0.0337
3436.00,0.0338
3435.00,0.0339
3434.00,0.0340
3433.00,0.0341
3432.00,0.0342
3431.00,0.0343
3430.00,0.0343
3429.00,0.0344
3428.00,0.0344
3427.00,0.0345
3426.00,0.0346
3425.00,0.0347
3424.00,0.0348
3423.00,0.0349
3422.00,0.0350
3421.00,0.0350
3420.00,0.0351
3419.00,0.0352
3418.00,0.0353
3417.00,0.0354
3416.00,0.0355
3415.00,0.0356
3414.00,0.0357
3413.00,0.0357
3412.00,0.0358
3411.00,0.0358
3410.00,0.0358
3409.00,0.0359
3408.00,0.0360
3407.00,0.0360
3406.00,0.0361
3405.00,0.0361
3404.00,0.0362
3403.00,0.0363
3402.00,0.0364
3401.00,0.0364
3400.00,0.0364
3399.00,0.0364
3398.00,0.0364
3397.00,0.0363
3396.00,0.0363
3395.00,0.0363
3394.00,0.0364
3393.00,0.0364
3392.00,0.0364
3391.00,0.0363
3390.00,0.0363
3389.00,0.0362
3388.00,0.0362
3387.00,0.0362
3386.00,0.0362
3385.00,0.0362
3384.00,0.0361
3383.00,0.0361
3382.00,0.0361
3381.00,0.0361
3380.00,0.0361
3379.00,0.0361
3378.00,0.0361
3377.00,0.0360
3376.00,0.0360
3375.00,0.0360
3374.00,0.0360
3373.00,0.0360
3372.00,0.0360
3371.00,0.0360
3370.00,0.0359
3369.00,0.0359
3368.00,0.0358
3367.00,0.0357
3366.00,0.0356
3365.00,0.0356
3364.00,0.0355
3363.00,0.0354
3362.00,0.0353
3361.00,0.0352
3360.00,0.0351
3359.00,0.0351
3358.00,0.0350
3357.00,0.0349
3356.00,0.0349
3355.00,0.0348
3354.00,0.0347
3353.00,0.0346
3352.00,0.0345
3351.00,0.0344
3350.00,0.0343
3349.00,0.0342
3348.00,0.0341
3347.00,0.0341
3346.00,0.0340
3345.00,0.0340
3344.00,0.0339
3343.00,0.0338
3342.00,0.0337
3341.00,0.0335
3340.00,0.0334
3339.00,0.0333
3338.00,0.0332
3337.00,0.0331
3336.00,0.0330
3335.00,0.0329
3334.00,0.0328
3333.00,0.0326
3332.00,0.0325
3331.00,0.0324
3330.00,0.0322
3329.00,0.0321
3328.00,0.0320
3327.00,0.0318
3326.00,0.0317
3325.00,0.0316
3324.00,0.0315
3323.00,0.0314
3322.00,0.0313
3321.00,0.0311
3320.00,0.0310
3319.00,0.0309
3318.00,0.0307
3317.00,0.0306
3316.00,0.0305
3315.00,0.0304
3314.00,0.0302
3313.00,0.0301
3312.00,0.0300
3311.00,0.0299
3310.00,0.0298
3309.00,0.0296
3308.00,0.0295
3307.00,0.0293
3306.00,0.0291
3305.00,0.0291
3304.00,0.0290
3303.00,0.0290
3302.00,0.0289
3301.00,0.0288
3300.00,0.0286
3299.00,0.0284
3298.00,0.0283
3297.00,0.0281
3296.00,0.0279
3295.00,0.0277
3294.00,0.0276
3293.00,0.0274
3292.00,0.0273
3291.00,0.0271
3290.00,0.0270
3289.00,0.0269
3288.00,0.0268
3287.00,0.0267
3286.00,0.0265
3285.00,0.0264
3284.00,0.0262
3283.00,0.0261
3282.00,0.0259
3281.00,0.0258
3280.00,0.0256
3279.00,0.0255
3278.00,0.0253
3277.00,0.0252
3276.00,0.0250
3275.00,0.0249
3274.00,0.0247
3273.00,0.0246
3272.00,0.0245
3271.00,0.0244
3270.00,0.0243
3269.00,0.0242
3268.00,0.0241
3267.00,0.0239
3266.00,0.0238
3265.00,0.0236
3264.00,0.0234
3263.00,0.0232
3262.00,0.0230
3261.00,0.0229
3260.00,0.0227
3259.00,0.0226
3258.00,0.0225
3257.00,0.0223
3256.00,0.0222
3255.00,0.0220
3254.00,0.0219
3253.00,0.0217
3252.00,0.0216
3251.00,0.0215
3250.00,0.0213
3249.00,0.0211
3248.00,0.0209
3247.00,0.0207
3246.00,0.0205
3245.00,0.0204
3244.00,0.0203
3243.00,0.0202
3242.00,0.0200
3241.00,0.0199
3240.00,0.0197
3239.00,0.0196
3238.00,0.0194
3237.00,0.0192
3236.00,0.0190
3235.00,0.0188
3234.00,0.0187
3233.00,0.0186
3232.00,0.0184
3231.00,0.0182
3230.00,0.0181
3229.00,0.0179
3228.00,0.0177
3227.00,0.0176
3226.00,0.0174
3225.00,0.0173
3224.00,0.0171
3223.00,0.0170
3222.00,0.0168
3221.00,0.0166
3220.00,0.0164
3219.00,0.0162
3218.00,0.0160
3217.00,0.0159
3216.00,0.0158
3215.00,0.0158
3214.00,0.0156
3213.00,0.0154
3212.00,0.0153
3211.00,0.0151
3210.00,0.0150
3209.00,0.0148
3208.00,0.0146
3207.00,0.0145
3206.00,0.0143
3205.00,0.0142
3204.00,0.0140
3203.00,0.0139
3202.00,0.0137
3201.00,0.0135
3200.00,0.0134
3199.00,0.0133
3198.00,0.0132
3197.00,0.0131
3196.00,0.0129
3195.00,0.0127
3194.00,0.0125
3193.00,0.0123
3192.00,0.0121
3191.00,0.0120
3190.00,0.0119
3189.00,0.0117
3188.00,0.0117
3187.00,0.0116
3186.00,0.0114
3185.00,0.0113
3184.00,0.0112
3183.00,0.0111
3182.00,0.0109
3181.00,0.0108
3180.00,0.0107
3179.00,0.0105
3178.00,0.0104
3177.00,0.0103
3176.00,0.0102
3175.00,0.0100
3174.00,0.0099
3173.00,0.0098
3172.00,0.0097
3171.00,0.0096
3170.00,0.0095
3169.00,0.0094
3168.00,0.0093
3167.00,0.0092
3166.00,0.0091
3165.00,0.0090
3164.00,0.0089
3163.00,0.0088
3162.00,0.0087
3161.00,0.0086
3160.00,0.0085
3159.00,0.0084
3158.00,0.0083
3157.00,0.0082
3156.00,0.0081
3155.00,0.0080
3154.00,0.0080
3153.00,0.0079
3152.00,0.0078
3151.00,0.0077
3150.00,0.0076
3149.00,0.0075
3148.00,0.0074
3147.00,0.0073
3146.00,0.0072
3145.00,0.0071
3144.00,0.0070
3143.00,0.0069
3142.00,0.0068
3141.00,0.0068
3140.00,0.0067
3139.00,0.0067
3138.00,0.0066
3137.00,0.0066
3136.00,0.0065
3135.00,0.0064
3134.00,0.0063
3133.00,0.0062
3132.00,0.0062
3131.00,0.0063
3130.00,0.0062
3129.00,0.0062
3128.00,0.0061
3127.00,0.0060
3126.00,0.0059
3125.00,0.0058
3124.00,0.0058
3123.00,0.0057
3122.00,0.0057
3121.00,0.0056
3120.00,0.0056
3119.00,0.0056
3118.00,0.0056
3117.00,0.0055
3116.00,0.0055
3115.00,0.0054
3114.00,0.0054
3113.00,0.0053
3112.00,0.0053
3111.00,0.0052
3110.00,0.0052
3109.00,0.0052
3108.00,0.0052
3107.00,0.0052
3106.00,0.0052
3105.00,0.0052
3104.00,0.0052
3103.00,0.0052
3102.00,0.0052
3101.00,0.0052
3100.00,0.0052
3099.00,0.0051
3098.00,0.0050
3097.00,0.0050
3096.00,0.0050
3095.00,0.0050
3094.00,0.0050
3093.00,0.0050
3092.00,0.0050
3091.00,0.0050
3090.00,0.0050
3089.00,0.0050
3088.00,0.0050
3087.00,0.0050
3086.00,0.0050
3085.00,0.0050
3084.00,0.0050
3083.00,0.0050
3082.00,0.0050
3081.00,0.0050
3080.00,0.0050
3079.00,0.0050
3078.00,0.0050
3077.00,0.0050
3076.00,0.0050
3075.00,0.0050
3074.00,0.0050
3073.00,0.0050
3072.00,0.0050
3071.00,0.0050
3070.00,0.0050
3069.00,0.0051
3068.00,0.0051
3067.00,0.0051
3066.00,0.0051
3065.00,0.0052
3064.00,0.0052
3063.00,0.0052
3062.00,0.0053
3061.00,0.0053
3060.00,0.0053
3059.00,0.0052
3058.00,0.0052
3057.00,0.0052
3056.00,0.0051
3055.00,0.0051
3054.00,0.0051
3053.00,0.0051
3052.00,0.0051
3051.00,0.0051
3050.00,0.0052
3049.00,0.0053
3048.00,0.0053
3047.00,0.0053
3046.00,0.0054
3045.00,0.0054
3044.00,0.0054
3043.00,0.0054
3042.00,0.0055
3041.00,0.0055
3040.00,0.0056
3039.00,0.0056
3038.00,0.0056
3037.00,0.0056
3036.00,0.0055
3035.00,0.0055
3034.00,0.0055
3033.00,0.0054
3032.00,0.0054
3031.00,0.0054
3030.00,0.0054
3029.00,0.0055
3028.00,0.0055
3027.00,0.0056
3026.00,0.0056
3025.00,0.0057
3024.00,0.0058
3023.00,0.0058
3022.00,0.0059
3021.00,0.0060
3020.00,0.0062
3019.00,0.0063
3018.00,0.0065
3017.00,0.0067
3016.00,0.0069
3015.00,0.0071
3014.00,0.0073
3013.00,0.0076
3012.00,0.0078
3011.00,0.0080
3010.00,0.0082
3009.00,0.0085
3008.00,0.0087
3007.00,0.0089
3006.00,0.0092
3005.00,0.0095
3004.00,0.0098
3003.00,0.0102
3002.00,0.0105
3001.00,0.0110
3000.00,0.0115
2999.00,0.0120
2998.00,0.0126
2997.00,0.0132
2996.00,0.0139
2995.00,0.0147
2994.00,0.0156
2993.00,0.0165
2992.00,0.0176
2991.00,0.0188
2990.00,0.0201
2989.00,0.0214
2988.00,0.0229
2987.00,0.0245
2986.00,0.0261
2985.00,0.0279
2984.00,0.0297
2983.00,0.0317
2982.00,0.0337
2981.00,0.0357
2980.00,0.0378
2979.00,0.0397
2978.00,0.0417
2977.00,0.0435
2976.00,0.0452
2975.00,0.0468
2974.00,0.0482
2973.00,0.0494
2972.00,0.0504
2971.00,0.0511
2970.00,0.0516
2969.00,0.0519
2968.00,0.0520
2967.00,0.0520
2966.00,0.0519
2965.00,0.0518
2964.00,0.0516
2963.00,0.0515
2962.00,0.0513
2961.00,0.0512
2960.00,0.0511
2959.00,0.0511
2958.00,0.0511
2957.00,0.0512
2956.00,0.0513
2955.00,0.0514
2954.00,0.0515
2953.00,0.0516
2952.00,0.0516
2951.00,0.0516
2950.00,0.0515
2949.00,0.0515
2948.00,0.0514
2947.00,0.0513
2946.00,0.0513
2945.00,0.0514
2944.00,0.0515
2943.00,0.0516
2942.00,0.0518
2941.00,0.0521
2940.00,0.0524
2939.00,0.0528
2938.00,0.0533
2937.00,0.0538
2936.00,0.0542
2935.00,0.0546
2934.00,0.0550
2933.00,0.0554
2932.00,0.0558
2931.00,0.0562
2930.00,0.0565
2929.00,0.0568
2928.00,0.0571
2927.00,0.0573
2926.00,0.0575
2925.00,0.0576
2924.00,0.0577
2923.00,0.0578
2922.00,0.0579
2921.00,0.0579
2920.00,0.0580
2919.00,0.0580
2918.00,0.0580
2917.00,0.0581
2916.00,0.0581
2915.00,0.0582
2914.00,0.0583
2913.00,0.0584
2912.00,0.0586
2911.00,0.0588
2910.00,0.0590
2909.00,0.0592
2908.00,0.0594
2907.00,0.0597
2906.00,0.0599
2905.00,0.0602
2904.00,0.0604
2903.00,0.0607
2902.00,0.0609
2901.00,0.0612
2900.00,0.0614
2899.00,0.0616
2898.00,0.0619
2897.00,0.0621
2896.00,0.0624
2895.00,0.0627
2894.00,0.0631
2893.00,0.0635
2892.00,0.0640
2891.00,0.0644
2890.00,0.0649
2889.00,0.0654
2888.00,0.0659
2887.00,0.0664
2886.00,0.0670
2885.00,0.0676
2884.00,0.0682
2883.00,0.0688
2882.00,0.0694
2881.00,0.0701
2880.00,0.0708
2879.00,0.0713
2878.00,0.0719
2877.00,0.0723
2876.00,0.0726
2875.00,0.0729
2874.00,0.0729
2873.00,0.0728
2872.00,0.0725
2871.00,0.0720
2870.00,0.0714
2869.00,0.0705
2868.00,0.0695
2867.00,0.0683
2866.00,0.0669
2865.00,0.0654
2864.00,0.0638
2863.00,0.0621
2862.00,0.0604
2861.00,0.0585
2860.00,0.0567
2859.00,0.0548
2858.00,0.0529
2857.00,0.0510
2856.00,0.0492
2855.00,0.0475
2854.00,0.0458
2853.00,0.0443
2852.00,0.0428
2851.00,0.0413
2850.00,0.0399
2849.00,0.0387
2848.00,0.0375
2847.00,0.0364
2846.00,0.0353
2845.00,0.0344
2844.00,0.0336
2843.00,0.0328
2842.00,0.0320
2841.00,0.0313
2840.00,0.0306
2839.00,0.0300
2838.00,0.0294
2837.00,0.0288
2836.00,0.0282
2835.00,0.0276
2834.00,0.0270
2833.00,0.0264
2832.00,0.0258
2831.00,0.0251
2830.00,0.0245
2829.00,0.0239
2828.00,0.0233
2827.00,0.0227
2826.00,0.0222
2825.00,0.0217
2824.00,0.0213
2823.00,0.0208
2822.00,0.0204
2821.00,0.0200
2820.00,0.0196
2819.00,0.0192
2818.00,0.0189
2817.00,0.0185
2816.00,0.0182
2815.00,0.0179
2814.00,0.0176
2813.00,0.0173
2812.00,0.0170
2811.00,0.0167
2810.00,0.0164
2809.00,0.0161
2808.00,0.0158
2807.00,0.0156
2806.00,0.0153
2805.00,0.0150
2804.00,0.0147
2803.00,0.0144
2802.00,0.0141
2801.00,0.0138
2800.00,0.0136
2799.00,0.0133
2798.00,0.0130
2797.00,0.0127
2796.00,0.0125
2795.00,0.0123
2794.00,0.0121
2793.00,0.0119
2792.00,0.0116
2791.00,0.0114
2790.00,0.0113
2789.00,0.0111
2788.00,0.0109
2787.00,0.0108
2786.00,0.0106
2785.00,0.0104
2784.00,0.0103
2783.00,0.0101
2782.00,0.0100
2781.00,0.0098
2780.00,0.0097
2779.00,0.0095
2778.00,0.0094
2777.00,0.0093
2776.00,0.0092
2775.00,0.0091
2774.00,0.0090
2773.00,0.0089
2772.00,0.0089
2771.00,0.0088
2770.00,0.0088
2769.00,0.0087
2768.00,0.0086
2767.00,0.0085
2766.00,0.0085
2765.00,0.0084
2764.00,0.0084
2763.00,0.0083
2762.00,0.0083
2761.00,0.0082
2760.00,0.0082
2759.00,0.0082
2758.00,0.0082
2757.00,0.0082
2756.00,0.0082
2755.00,0.0082
2754.00,0.0081
2753.00,0.0082
2752.00,0.0082
2751.00,0.0082
2750.00,0.0082
2749.00,0.0081
2748.00,0.0081
2747.00,0.0081
2746.00,0.0081
2745.00,0.0081
2744.00,0.0081
2743.00,0.0080
2742.00,0.0080
2741.00,0.0080
2740.00,0.0080
2739.00,0.0080
2738.00,0.0079
2737.00,0.0079
2736.00,0.0079
2735.00,0.0079
2734.00,0.0079
2733.00,0.0079
2732.00,0.0078
2731.00,0.0078
2730.00,0.0078
2729.00,0.0078
2728.00,0.0077
2727.00,0.0077
2726.00,0.0077
2725.00,0.0077
2724.00,0.0076
2723.00,0.0076
2722.00,0.0075
2721.00,0.0074
2720.00,0.0074
2719.00,0.0073
2718.00,0.0072
2717.00,0.0072
2716.00,0.0071
2715.00,0.0070
2714.00,0.0069
2713.00,0.0068
2712.00,0.0067
2711.00,0.0066
2710.00,0.0066
2709.00,0.0065
2708.00,0.0065
2707.00,0.0064
2706.00,0.0064
2705.00,0.0063
2704.00,0.0062
2703.00,0.0061
2702.00,0.0060
2701.00,0.0060
2700.00,0.0059
2699.00,0.0059
2698.00,0.0058
2697.00,0.0058
2696.00,0.0057
2695.00,0.0056
2694.00,0.0055
2693.00,0.0054
2692.00,0.0053
2691.00,0.0052
2690.00,0.0052
2689.00,0.0051
2688.00,0.0050
2687.00,0.0049
2686.00,0.0049
2685.00,0.0048
2684.00,0.0048
2683.00,0.0047
2682.00,0.0047
2681.00,0.0046
2680.00,0.0046
2679.00,0.0045
2678.00,0.0045
2677.00,0.0044
2676.00,0.0043
2675.00,0.0043
2674.00,0.0043
2673.00,0.0043
2672.00,0.0042
2671.00,0.0042
2670.00,0.0041
2669.00,0.0041
2668.00,0.0040
2667.00,0.0040
2666.00,0.0040
2665.00,0.0040
2664.00,0.0040
2663.00,0.0039
2662.00,0.0039
2661.00,0.0039
2660.00,0.0038
2659.00,0.0038
2658.00,0.0038
2657.00,0.0038
2656.00,0.0038
2655.00,0.0038
2654.00,0.0037
2653.00,0.0037
2652.00,0.0037
2651.00,0.0036
2650.00,0.0036
2649.00,0.0036
2648.00,0.0036
2647.00,0.0036
2646.00,0.0036
2645.00,0.0036
2644.00,0.0036
2643.00,0.0035
2642.00,0.0035
2641.00,0.0035
2640.00,0.0035
2639.00,0.0035
2638.00,0.0035
2637.00,0.0034
2636.00,0.0034
2635.00,0.0034
2634.00,0.0034
2633.00,0.0034
2632.00,0.0034
2631.00,0.0034
2630.00,0.0034
2629.00,0.0034
2628.00,0.0034
2627.00,0.0034
2626.00,0.0033
2625.00,0.0032
2624.00,0.0032
2623.00,0.0032
2622.00,0.0032
2621.00,0.0033
2620.00,0.0033
2619.00,0.0032
2618.00,0.0032
2617.00,0.0032
2616.00,0.0032
2615.00,0.0031
2614.00,0.0032
2613.00,0.0032
2612.00,0.0031
2611.00,0.0031
2610.00,0.0031
2609.00,0.0031
2608.00,0.0032
2607.00,0.0032
2606.00,0.0032
2605.00,0.0032
2604.00,0.0031
2603.00,0.0031
2602.00,0.0031
2601.00,0.0031
2600.00,0.0031
2599.00,0.0031
2598.00,0.0032
2597.00,0.0031
2596.00,0.0031
2595.00,0.0030
2594.00,0.0030
2593.00,0.0030
2592.00,0.0031
2591.00,0.0031
2590.00,0.0031
2589.00,0.0031
2588.00,0.0030
2587.00,0.0030
2586.00,0.0030
2585.00,0.0029
2584.00,0.0029
2583.00,0.0030
2582.00,0.0030
2581.00,0.0030
2580.00,0.0029
2579.00,0.0029
2578.00,0.0029
2577.00,0.0029
2576.00,0.0029
2575.00,0.0028
2574.00,0.0029
2573.00,0.0029
2572.00,0.0029
2571.00,0.0029
2570.00,0.0029
2569.00,0.0029
2568.00,0.0029
2567.00,0.0029
2566.00,0.0028
2565.00,0.0028
2564.00,0.0028
2563.00,0.0028
2562.00,0.0028
2561.00,0.0029
2560.00,0.0029
2559.00,0.0029
2558.00,0.0028
2557.00,0.0028
2556.00,0.0028
2555.00,0.0028
2554.00,0.0028
2553.00,0.0028
2552.00,0.0028
2551.00,0.0028
2550.00,0.0028
2549.00,0.0029
2548.00,0.0029
2547.00,0.0029
2546.00,0.0029
2545.00,0.0029
2544.00,0.0029
2543.00,0.0029
2542.00,0.0029
2541.00,0.0030
2540.00,0.0030
2539.00,0.0031
2538.00,0.0031
2537.00,0.0031
2536.00,0.0031
2535.00,0.0031
2534.00,0.0031
2533.00,0.0030
2532.00,0.0030
2531.00,0.0030
2530.00,0.0030
2529.00,0.0030
2528.00,0.0030
2527.00,0.0030
2526.00,0.0030
2525.00,0.0030
2524.00,0.0030
2523.00,0.0030
2522.00,0.0030
2521.00,0.0030
2520.00,0.0029
2519.00,0.0029
2518.00,0.0028
2517.00,0.0028
2516.00,0.0028
2515.00,0.0028
2514.00,0.0029
2513.00,0.0029
2512.00,0.0029
2511.00,0.0029
2510.00,0.0029
2509.00,0.0029
2508.00,0.0029
2507.00,0.0029
2506.00,0.0029
2505.00,0.0029
2504.00,0.0028
2503.00,0.0028
2502.00,0.0027
2501.00,0.0027
2500.00,0.0028
2499.00,0.0028
2498.00,0.0028
2497.00,0.0028
2496.00,0.0028
2495.00,0.0028
2494.00,0.0028
2493.00,0.0028
2492.00,0.0029
2491.00,0.0028
2490.00,0.0028
2489.00,0.0027
2488.00,0.0027
2487.00,0.0027
2486.00,0.0027
2485.00,0.0027
2484.00,0.0027
2483.00,0.0027
2482.00,0.0027
2481.00,0.0026
2480.00,0.0026
2479.00,0.0027
2478.00,0.0027
2477.00,0.0026
2476.00,0.0026
2475.00,0.0025
2474.00,0.0025
2473.00,0.0025
2472.00,0.0025
2471.00,0.0024
2470.00,0.0024
2469.00,0.0023
2468.00,0.0023
2467.00,0.0024
2466.00,0.0024
2465.00,0.0024
2464.00,0.0024
2463.00,0.0023
2462.00,0.0023
2461.00,0.0023
2460.00,0.0023
2459.00,0.0023
2458.00,0.0022
2457.00,0.0022
2456.00,0.0022
2455.00,0.0022
2454.00,0.0022
2453.00,0.0022
2452.00,0.0022
2451.00,0.0021
2450.00,0.0021
2449.00,0.0021
2448.00,0.0021
2447.00,0.0021
2446.00,0.0020
2445.00,0.0020
2444.00,0.0020
2443.00,0.0020
2442.00,0.0020
2441.00,0.0021
2440.00,0.0021
2439.00,0.0021
2438.00,0.0021
2437.00,0.0020
2436.00,0.0020
2435.00,0.0020
2434.00,0.0020
2433.00,0.0019
2432.00,0.0019
2431.00,0.0018
2430.00,0.0019
2429.00,0.0019
2428.00,0.0019
2427.00,0.0019
2426.00,0.0019
2425.00,0.0019
2424.00,0.0019
2423.00,0.0019
2422.00,0.0019
2421.00,0.0019
2420.00,0.0019
2419.00,0.0019
2418.00,0.0019
2417.00,0.0019
2416.00,0.0020
2415.00,0.0021
2414.00,0.0021
2413.00,0.0021
2412.00,0.0021
2411.00,0.0020
2410.00,0.0020
2409.00,0.0020
2408.00,0.0020
2407.00,0.0020
2406.00,0.0020
2405.00,0.0020
2404.00,0.0019
2403.00,0.0019
2402.00,0.0019
2401.00,0.0019
2400.00,0.0018
2399.00,0.0018
2398.00,0.0018
2397.00,0.0018
2396.00,0.0018
2395.00,0.0018
2394.00,0.0019
2393.00,0.0019
2392.00,0.0019
2391.00,0.0018
2390.00,0.0018
2389.00,0.0018
2388.00,0.0018
2387.00,0.0018
2386.00,0.0017
2385.00,0.0017
2384.00,0.0017
2383.00,0.0017
2382.00,0.0017
2381.00,0.0017
2380.00,0.0017
2379.00,0.0017
2378.00,0.0017
2377.00,0.0017
2376.00,0.0016
2375.00,0.0016
2374.00,0.0016
2373.00,0.0017
2372.00,0.0017
2371.00,0.0017
2370.00,0.0017
2369.00,0.0016
2368.00,0.0016
2367.00,0.0016
2366.00,0.0016
2365.00,0.0016
2364.00,0.0017
2363.00,0.0017
2362.00,0.0016
2361.00,0.0016
2360.00,0.0016
2359.00,0.0016
2358.00,0.0016
2357.00,0.0016
2356.00,0.0016
2355.00,0.0016
2354.00,0.0017
2353.00,0.0017
2352.00,0.0016
2351.00,0.0016
2350.00,0.0015
2349.00,0.0016
2348.00,0.0016
2347.00,0.0016
2346.00,0.0015
2345.00,0.0015
2344.00,0.0015
2343.00,0.0015
2342.00,0.0016
2341.00,0.0016
2340.00,0.0016
2339.00,0.0015
2338.00,0.0015
2337.00,0.0015
2336.00,0.0016
2335.00,0.0016
2334.00,0.0016
2333.00,0.0015
2332.00,0.0015
2331.00,0.0015
2330.00,0.0014
2329.00,0.0014
2328.00,0.0014
2327.00,0.0014
2326.00,0.0015
2325.00,0.0015
2324.00,0.0015
2323.00,0.0015
2322.00,0.0015
2321.00,0.0015
2320.00,0.0015
2319.00,0.0015
2318.00,0.0015
2317.00,0.0015
2316.00,0.0014
2315.00,0.0014
2314.00,0.0014
2313.00,0.0014
2312.00,0.0014
2311.00,0.0015
2310.00,0.0015
2309.00,0.0015
2308.00,0.0015
2307.00,0.0016
2306.00,0.0016
2305.00,0.0016
2304.00,0.0016
2303.00,0.0016
2302.00,0.0016
2301.00,0.0016
2300.00,0.0017
2299.00,0.0017
2298.00,0.0017
2297.00,0.0017
2296.00,0.0017
2295.00,0.0016
2294.00,0.0016
2293.00,0.0016
2292.00,0.0016
2291.00,0.0016
2290.00,0.0016
2289.00,0.0016
2288.00,0.0017
2287.00,0.0017
2286.00,0.0017
2285.00,0.0017
2284.00,0.0017
2283.00,0.0017
2282.00,0.0017
2281.00,0.0016
2280.00,0.0016
2279.00,0.0016
2278.00,0.0016
2277.00,0.0017
2276.00,0.0017
2275.00,0.0017
2274.00,0.0017
2273.00,0.0018
2272.00,0.0018
2271.00,0.0017
2270.00,0.0017
2269.00,0.0017
2268.00,0.0017
2267.00,0.0017
2266.00,0.0018
2265.00,0.0018
2264.00,0.0019
2263.00,0.0019
2262.00,0.0019
2261.00,0.0019
2260.00,0.0019
2259.00,0.0019
2258.00,0.0019
2257.00,0.0019
2256.00,0.0018
2255.00,0.0018
2254.00,0.0017
2253.00,0.0017
2252.00,0.0017
2251.00,0.0018
2250.00,0.0020
2249.00,0.0020
2248.00,0.0020
2247.00,0.0019
2246.00,0.0017
2245.00,0.0017
2244.00,0.0016
2243.00,0.0016
2242.00,0.0017
2241.00,0.0019
2240.00,0.0020
2239.00,0.0021
2238.00,0.0021
2237.00,0.0020
2236.00,0.0019
2235.00,0.0017
2234.00,0.0017
2233.00,0.0017
2232.00,0.0017
2231.00,0.0017
2230.00,0.0018
2229.00,0.0019
2228.00,0.0019
2227.00,0.0018
2226.00,0.0018
2225.00,0.0017
2224.00,0.0017
2223.00,0.0018
2222.00,0.0019
2221.00,0.0019
2220.00,0.0020
2219.00,0.0020
2218.00,0.0020
2217.00,0.0020
2216.00,0.0019
2215.00,0.0019
2214.00,0.0019
2213.00,0.0019
2212.00,0.0019
2211.00,0.0019
2210.00,0.0018
2209.00,0.0018
2208.00,0.0018
2207.00,0.0018
2206.00,0.0019
2205.00,0.0019
2204.00,0.0019
2203.00,0.0019
2202.00,0.0018
2201.00,0.0018
2200.00,0.0018
2199.00,0.0018
2198.00,0.0018
2197.00,0.0019
2196.00,0.0020
2195.00,0.0021
2194.00,0.0021
2193.00,0.0021
2192.00,0.0022
2191.00,0.0022
2190.00,0.0022
2189.00,0.0022
2188.00,0.0022
2187.00,0.0022
2186.00,0.0021
2185.00,0.0021
2184.00,0.0021
2183.00,0.0020
2182.00,0.0020
2181.00,0.0020
2180.00,0.0019
2179.00,0.0020
2178.00,0.0020
2177.00,0.0020
2176.00,0.0021
2175.00,0.0021
2174.00,0.0021
2173.00,0.0021
2172.00,0.0021
2171.00,0.0020
2170.00,0.0020
2169.00,0.0019
2168.00,0.0019
2167.00,0.0019
2166.00,0.0019
2165.00,0.0020
2164.00,0.0021
2163.00,0.0022
2162.00,0.0021
2161.00,0.0020
2160.00,0.0019
2159.00,0.0019
2158.00,0.0019
2157.00,0.0020
2156.00,0.0021
2155.00,0.0021
2154.00,0.0021
2153.00,0.0020
2152.00,0.0020
2151.00,0.0021
2150.00,0.0021
2149.00,0.0021
2148.00,0.0021
2147.00,0.0021
2146.00,0.0020
2145.00,0.0020
2144.00,0.0020
2143.00,0.0021
2142.00,0.0021
2141.00,0.0022
2140.00,0.0022
2139.00,0.0022
2138.00,0.0021
2137.00,0.0021
2136.00,0.0021
2135.00,0.0021
2134.00,0.0022
2133.00,0.0023
2132.00,0.0023
2131.00,0.0023
2130.00,0.0023
2129.00,0.0023
2128.00,0.0024
2127.00,0.0024
2126.00,0.0023
2125.00,0.0023
2124.00,0.0023
2123.00,0.0022
2122.00,0.0022
2121.00,0.0022
2120.00,0.0022
2119.00,0.0023
2118.00,0.0023
2117.00,0.0022
2116.00,0.0022
2115.00,0.0021
2114.00,0.0020
2113.00,0.0020
2112.00,0.0020
2111.00,0.0021
2110.00,0.0022
2109.00,0.0022
2108.00,0.0023
2107.00,0.0023
2106.00,0.0023
2105.00,0.0024
2104.00,0.0024
2103.00,0.0023
2102.00,0.0023
2101.00,0.0022
2100.00,0.0022
2099.00,0.0023
2098.00,0.0023
2097.00,0.0024
2096.00,0.0024
2095.00,0.0024
2094.00,0.0024
2093.00,0.0024
2092.00,0.0024
2091.00,0.0024
2090.00,0.0024
2089.00,0.0024
2088.00,0.0024
2087.00,0.0024
2086.00,0.0023
2085.00,0.0023
2084.00,0.0023
2083.00,0.0023
2082.00,0.0022
2081.00,0.0022
2080.00,0.0023
2079.00,0.0023
2078.00,0.0023
2077.00,0.0023
2076.00,0.0023
2075.00,0.0023
2074.00,0.0023
2073.00,0.0023
2072.00,0.0023
2071.00,0.0023
2070.00,0.0022
2069.00,0.0022
2068.00,0.0022
2067.00,0.0021
2066.00,0.0021
2065.00,0.0020
2064.00,0.0020
2063.00,0.0020
2062.00,0.0020
2061.00,0.0021
2060.00,0.0021
2059.00,0.0021
2058.00,0.0020
2057.00,0.0020
2056.00,0.0021
2055.00,0.0021
2054.00,0.0022
2053.00,0.0022
2052.00,0.0022
2051.00,0.0022
2050.00,0.0022
2049.00,0.0022
2048.00,0.0022
2047.00,0.0022
2046.00,0.0022
2045.00,0.0021
2044.00,0.0020
2043.00,0.0018
2042.00,0.0016
2041.00,0.0016
2040.00,0.0016
2039.00,0.0017
2038.00,0.0018
2037.00,0.0018
2036.00,0.0018
2035.00,0.0019
2034.00,0.0019
2033.00,0.0019
2032.00,0.0020
2031.00,0.0020
2030.00,0.0020
2029.00,0.0020
2028.00,0.0019
2027.00,0.0019
2026.00,0.0019
2025.00,0.0019
2024.00,0.0018
2023.00,0.0018
2022.00,0.0018
2021.00,0.0017
2020.00,0.0017
2019.00,0.0016
2018.00,0.0017
2017.00,0.0018
2016.00,0.0020
2015.00,0.0020
2014.00,0.0020
2013.00,0.0019
2012.00,0.0019
2011.00,0.0019
2010.00,0.0020
2009.00,0.0021
2008.00,0.0022
2007.00,0.0022
2006.00,0.0022
2005.00,0.0021
2004.00,0.0020
2003.00,0.0019
2002.00,0.0019
2001.00,0.0020
2000.00,0.0021
1999.00,0.0022
1998.00,0.0023
1997.00,0.0023
1996.00,0.0024
1995.00,0.0024
1994.00,0.0024
1993.00,0.0024
1992.00,0.0024
1991.00,0.0024
1990.00,0.0024
1989.00,0.0025
1988.00,0.0026
1987.00,0.0026
1986.00,0.0026
1985.00,0.0027
1984.00,0.0027
1983.00,0.0027
1982.00,0.0027
1981.00,0.0027
1980.00,0.0027
1979.00,0.0027
1978.00,0.0027
1977.00,0.0027
1976.00,0.0028
1975.00,0.0028
1974.00,0.0028
1973.00,0.0029
1972.00,0.0028
1971.00,0.0028
1970.00,0.0027
1969.00,0.0026
1968.00,0.0025
1967.00,0.0026
1966.00,0.0027
1965.00,0.0029
1964.00,0.0030
1963.00,0.0030
1962.00,0.0029
1961.00,0.0029
1960.00,0.0030
1959.00,0.0031
1958.00,0.0031
1957.00,0.0032
1956.00,0.0032
1955.00,0.0032
1954.00,0.0031
1953.00,0.0031
1952.00,0.0030
1951.00,0.0029
1950.00,0.0030
1949.00,0.0031
1948.00,0.0031
1947.00,0.0031
1946.00,0.0030
1945.00,0.0029
1944.00,0.0029
1943.00,0.0028
1942.00,0.0029
1941.00,0.0029
1940.00,0.0030
1939.00,0.0030
1938.00,0.0029
1937.00,0.0029
1936.00,0.0029
1935.00,0.0030
1934.00,0.0030
1933.00,0.0031
1932.00,0.0031
1931.00,0.0032
1930.00,0.0032
1929.00,0.0033
1928.00,0.0033
1927.00,0.0033
1926.00,0.0033
1925.00,0.0033
1924.00,0.0033
1923.00,0.0033
1922.00,0.0033
1921.00,0.0033
1920.00,0.0033
1919.00,0.0032
1918.00,0.0032
1917.00,0.0031
1916.00,0.0029
1915.00,0.0029
1914.00,0.0028
1913.00,0.0028
1912.00,0.0029
1911.00,0.0028
1910.00,0.0027
1909.00,0.0027
1908.00,0.0026
1907.00,0.0027
1906.00,0.0027
1905.00,0.0027
1904.00,0.0027
1903.00,0.0026
1902.00,0.0026
1901.00,0.0025
1900.00,0.0025
1899.00,0.0024
1898.00,0.0024
1897.00,0.0024
1896.00,0.0024
1895.00,0.0024
1894.00,0.0024
1893.00,0.0025
1892.00,0.0025
1891.00,0.0025
1890.00,0.0025
1889.00,0.0024
1888.00,0.0024
1887.00,0.0024
1886.00,0.0024
1885.00,0.0024
1884.00,0.0024
1883.00,0.0024
1882.00,0.0024
1881.00,0.0024
1880.00,0.0024
1879.00,0.0023
1878.00,0.0023
1877.00,0.0023
1876.00,0.0024
1875.00,0.0024
1874.00,0.0024
1873.00,0.0023
1872.00,0.0023
1871.00,0.0022
1870.00,0.0021
1869.00,0.0021
1868.00,0.0022
1867.00,0.0022
1866.00,0.0022
1865.00,0.0022
1864.00,0.0022
1863.00,0.0022
1862.00,0.0022
1861.00,0.0021
1860.00,0.0021
1859.00,0.0021
1858.00,0.0021
1857.00,0.0021
1856.00,0.0021
1855.00,0.0020
1854.00,0.0020
1853.00,0.0020
1852.00,0.0020
1851.00,0.0020
1850.00,0.0020
1849.00,0.0020
1848.00,0.0020
1847.00,0.0019
1846.00,0.0019
1845.00,0.0019
1844.00,0.0019
1843.00,0.0019
1842.00,0.0020
1841.00,0.0020
1840.00,0.0021
1839.00,0.0020
1838.00,0.0020
1837.00,0.0020
1836.00,0.0020
1835.00,0.0020
1834.00,0.0021
1833.00,0.0020
1832.00,0.0020
1831.00,0.0020
1830.00,0.0020
1829.00,0.0020
1828.00,0.0021
1827.00,0.0021
1826.00,0.0021
1825.00,0.0021
1824.00,0.0022
1823.00,0.0022
1822.00,0.0022
1821.00,0.0022
1820.00,0.0022
1819.00,0.0022
1818.00,0.0022
1817.00,0.0022
1816.00,0.0022
1815.00,0.0022
1814.00,0.0022
1813.00,0.0022
1812.00,0.0023
1811.00,0.0023
1810.00,0.0023
1809.00,0.0023
1808.00,0.0024
1807.00,0.0024
1806.00,0.0024
1805.00,0.0024
1804.00,0.0024
1803.00,0.0024
1802.00,0.0024
1801.00,0.0025
1800.00,0.0025
1799.00,0.0025
1798.00,0.0025
1797.00,0.0025
1796.00,0.0026
1795.00,0.0026
1794.00,0.0026
1793.00,0.0026
1792.00,0.0026
1791.00,0.0026
1790.00,0.0026
1789.00,0.0027
1788.00,0.0027
1787.00,0.0028
1786.00,0.0028
1785.00,0.0029
1784.00,0.0030
1783.00,0.0031
1782.00,0.0031
1781.00,0.0031
1780.00,0.0032
1779.00,0.0032
1778.00,0.0033
1777.00,0.0034
1776.00,0.0035
1775.00,0.0036
1774.00,0.0037
1773.00,0.0038
1772.00,0.0040
1771.00,0.0041
1770.00,0.0042
1769.00,0.0044
1768.00,0.0046
1767.00,0.0048
1766.00,0.0050
1765.00,0.0051
1764.00,0.0053
1763.00,0.0054
1762.00,0.0056
1761.00,0.0059
1760.00,0.0061
1759.00,0.0062
1758.00,0.0064
1757.00,0.0066
1756.00,0.0068
1755.00,0.0069
1754.00,0.0070
1753.00,0.0071
1752.00,0.0073
1751.00,0.0075
1750.00,0.0077
1749.00,0.0081
1748.00,0.0084
1747.00,0.0088
1746.00,0.0093
1745.00,0.0098
1744.00,0.0105
1743.00,0.0113
1742.00,0.0122
1741.00,0.0132
1740.00,0.0145
1739.00,0.0159
1738.00,0.0171
1737.00,0.0182
1736.00,0.0195
1735.00,0.0211
1734.00,0.0230
1733.00,0.0244
1732.00,0.0253
1731.00,0.0257
1730.00,0.0259
1729.00,0.0257
1728.00,0.0253
1727.00,0.0246
1726.00,0.0237
1725.00,0.0227
1724.00,0.0217
1723.00,0.0208
1722.00,0.0200
1721.00,0.0194
1720.00,0.0188
1719.00,0.0181
1718.00,0.0176
1717.00,0.0172
1716.00,0.0170
1715.00,0.0169
1714.00,0.0168
1713.00,0.0167
1712.00,0.0165
1711.00,0.0162
1710.00,0.0159
1709.00,0.0156
1708.00,0.0152
1707.00,0.0147
1706.00,0.0142
1705.00,0.0137
1704.00,0.0133
1703.00,0.0130
1702.00,0.0126
1701.00,0.0121
1700.00,0.0114
1699.00,0.0109
1698.00,0.0105
1697.00,0.0103
1696.00,0.0101
1695.00,0.0100
1694.00,0.0099
1693.00,0.0099
1692.00,0.0100
1691.00,0.0101
1690.00,0.0104
1689.00,0.0108
1688.00,0.0112
1687.00,0.0116
1686.00,0.0121
1685.00,0.0129
1684.00,0.0139
1683.00,0.0147
1682.00,0.0153
1681.00,0.0159
1680.00,0.0164
1679.00,0.0169
1678.00,0.0173
1677.00,0.0175
1676.00,0.0178
1675.00,0.0180
1674.00,0.0181
1673.00,0.0181
1672.00,0.0181
1671.00,0.0181
1670.00,0.0182
1669.00,0.0182
1668.00,0.0182
1667.00,0.0182
1666.00,0.0181
1665.00,0.0180
1664.00,0.0179
1663.00,0.0177
1662.00,0.0174
1661.00,0.0172
1660.00,0.0169
1659.00,0.0166
1658.00,0.0163
1657.00,0.0160
1656.00,0.0157
1655.00,0.0153
1654.00,0.0149
1653.00,0.0146
1652.00,0.0145
1651.00,0.0145
1650.00,0.0145
1649.00,0.0145
1648.00,0.0145
1647.00,0.0145
1646.00,0.0145
1645.00,0.0144
1644.00,0.0142
1643.00,0.0140
1642.00,0.0137
1641.00,0.0133
1640.00,0.0130
1639.00,0.0126
1638.00,0.0122
1637.00,0.0119
1636.00,0.0117
1635.00,0.0114
1634.00,0.0113
1633.00,0.0112
1632.00,0.0112
1631.00,0.0113
1630.00,0.0114
1629.00,0.0115
1628.00,0.0117
1627.00,0.0117
1626.00,0.0116
1625.00,0.0113
1624.00,0.0111
1623.00,0.0108
1622.00,0.0107
1621.00,0.0106
1620.00,0.0107
1619.00,0.0108
1618.00,0.0112
1617.00,0.0120
1616.00,0.0130
1615.00,0.0140
1614.00,0.0148
1613.00,0.0156
1612.00,0.0162
1611.00,0.0165
1610.00,0.0164
1609.00,0.0160
1608.00,0.0152
1607.00,0.0143
1606.00,0.0132
1605.00,0.0123
1604.00,0.0114
1603.00,0.0106
1602.00,0.0099
1601.00,0.0094
1600.00,0.0090
1599.00,0.0086
1598.00,0.0082
1597.00,0.0079
1596.00,0.0076
1595.00,0.0073
1594.00,0.0070
1593.00,0.0069
1592.00,0.0068
1591.00,0.0067
1590.00,0.0066
1589.00,0.0066
1588.00,0.0067
1587.00,0.0070
1586.00,0.0073
1585.00,0.0077
1584.00,0.0081
1583.00,0.0085
1582.00,0.0087
1581.00,0.0087
1580.00,0.0086
1579.00,0.0083
1578.00,0.0080
1577.00,0.0076
1576.00,0.0072
1575.00,0.0069
1574.00,0.0067
1573.00,0.0065
1572.00,0.0064
1571.00,0.0063
1570.00,0.0061
1569.00,0.0060
1568.00,0.0059
1567.00,0.0059
1566.00,0.0058
1565.00,0.0059
1564.00,0.0059
1563.00,0.0058
1562.00,0.0058
1561.00,0.0058
1560.00,0.0058
1559.00,0.0058
1558.00,0.0059
1557.00,0.0059
1556.00,0.0060
1555.00,0.0060
1554.00,0.0060
1553.00,0.0061
1552.00,0.0061
1551.00,0.0061
1550.00,0.0061
1549.00,0.0062
1548.00,0.0063
1547.00,0.0063
1546.00,0.0063
1545.00,0.0064
1544.00,0.0065
1543.00,0.0065
1542.00,0.0065
1541.00,0.0066
1540.00,0.0068
1539.00,0.0069
1538.00,0.0071
1537.00,0.0072
1536.00,0.0073
1535.00,0.0074
1534.00,0.0076
1533.00,0.0078
1532.00,0.0081
1531.00,0.0084
1530.00,0.0086
1529.00,0.0089
1528.00,0.0092
1527.00,0.0096
1526.00,0.0102
1525.00,0.0108
1524.00,0.0114
1523.00,0.0122
1522.00,0.0137
1521.00,0.0157
1520.00,0.0181
1519.00,0.0208
1518.00,0.0248
1517.00,0.0303
1516.00,0.0365
1515.00,0.0419
1514.00,0.0461
1513.00,0.0486
1512.00,0.0490
1511.00,0.0475
1510.00,0.0446
1509.00,0.0407
1508.00,0.0359
1507.00,0.0305
1506.00,0.0262
1505.00,0.0237
1504.00,0.0221
1503.00,0.0210
1502.00,0.0201
1501.00,0.0194
1500.00,0.0188
1499.00,0.0183
1498.00,0.0179
1497.00,0.0178
1496.00,0.0180
1495.00,0.0183
1494.00,0.0188
1493.00,0.0194
1492.00,0.0201
1491.00,0.0211
1490.00,0.0223
1489.00,0.0236
1488.00,0.0250
1487.00,0.0261
1486.00,0.0272
1485.00,0.0280
1484.00,0.0288
1483.00,0.0294
1482.00,0.0301
1481.00,0.0311
1480.00,0.0321
1479.00,0.0333
1478.00,0.0346
1477.00,0.0361
1476.00,0.0375
1475.00,0.0388
1474.00,0.0401
1473.00,0.0415
1472.00,0.0428
1471.00,0.0439
1470.00,0.0448
1469.00,0.0457
1468.00,0.0466
1467.00,0.0475
1466.00,0.0486
1465.00,0.0498
1464.00,0.0510
1463.00,0.0521
1462.00,0.0532
1461.00,0.0542
1460.00,0.0552
1459.00,0.0564
1458.00,0.0578
1457.00,0.0594
1456.00,0.0605
1455.00,0.0609
1454.00,0.0609
1453.00,0.0607
1452.00,0.0601
1451.00,0.0593
1450.00,0.0583
1449.00,0.0572
1448.00,0.0559
1447.00,0.0547
1446.00,0.0537
1445.00,0.0527
1444.00,0.0518
1443.00,0.0508
1442.00,0.0500
1441.00,0.0493
1440.00,0.0485
1439.00,0.0478
1438.00,0.0470
1437.00,0.0463
1436.00,0.0456
1435.00,0.0450
1434.00,0.0446
1433.00,0.0441
1432.00,0.0437
1431.00,0.0433
1430.00,0.0429
1429.00,0.0426
1428.00,0.0423
1427.00,0.0421
1426.00,0.0419
1425.00,0.0418
1424.00,0.0418
1423.00,0.0418
1422.00,0.0418
1421.00,0.0418
1420.00,0.0419
1419.00,0.0423
1418.00,0.0427
1417.00,0.0430
1416.00,0.0433
1415.00,0.0436
1414.00,0.0437
1413.00,0.0438
1412.00,0.0438
1411.00,0.0438
1410.00,0.0437
1409.00,0.0437
1408.00,0.0436
1407.00,0.0436
1406.00,0.0436
1405.00,0.0437
1404.00,0.0438
1403.00,0.0439
1402.00,0.0440
1401.00,0.0441
1400.00,0.0444
1399.00,0.0450
1398.00,0.0458
1397.00,0.0467
1396.00,0.0475
1395.00,0.0481
1394.00,0.0484
1393.00,0.0486
1392.00,0.0488
1391.00,0.0491
1390.00,0.0498
1389.00,0.0508
1388.00,0.0520
1387.00,0.0533
1386.00,0.0542
1385.00,0.0546
1384.00,0.0547
1383.00,0.0545
1382.00,0.0544
1381.00,0.0545
1380.00,0.0547
1379.00,0.0551
1378.00,0.0555
1377.00,0.0560
1376.00,0.0565
1375.00,0.0570
1374.00,0.0575
1373.00,0.0581
1372.00,0.0588
1371.00,0.0596
1370.00,0.0609
1369.00,0.0626
1368.00,0.0646
1367.00,0.0664
1366.00,0.0673
1365.00,0.0668
1364.00,0.0650
1363.00,0.0621
1362.00,0.0590
1361.00,0.0564
1360.00,0.0545
1359.00,0.0532
1358.00,0.0524
1357.00,0.0519
1356.00,0.0519
1355.00,0.0521
1354.00,0.0526
1353.00,0.0532
1352.00,0.0539
1351.00,0.0543
1350.00,0.0545
1349.00,0.0543
1348.00,0.0535
1347.00,0.0522
1346.00,0.0504
1345.00,0.0483
1344.00,0.0461
1343.00,0.0441
1342.00,0.0423
1341.00,0.0410
1340.00,0.0402
1339.00,0.0397
1338.00,0.0396
1337.00,0.0397
1336.00,0.0400
1335.00,0.0404
1334.00,0.0408
1333.00,0.0413
1332.00,0.0418
1331.00,0.0424
1330.00,0.0430
1329.00,0.0434
1328.00,0.0438
1327.00,0.0439
1326.00,0.0438
1325.00,0.0436
1324.00,0.0432
1323.00,0.0427
1322.00,0.0421
1321.00,0.0417
1320.00,0.0413
1319.00,0.0411
1318.00,0.0412
1317.00,0.0415
1316.00,0.0419
1315.00,0.0425
1314.00,0.0432
1313.00,0.0439
1312.00,0.0446
1311.00,0.0452
1310.00,0.0460
1309.00,0.0468
1308.00,0.0477
1307.00,0.0487
1306.00,0.0498
1305.00,0.0509
1304.00,0.0520
1303.00,0.0532
1302.00,0.0543
1301.00,0.0555
1300.00,0.0566
1299.00,0.0577
1298.00,0.0586
1297.00,0.0593
1296.00,0.0598
1295.00,0.0599
1294.00,0.0599
1293.00,0.0596
1292.00,0.0594
1291.00,0.0591
1290.00,0.0590
1289.00,0.0590
1288.00,0.0590
1287.00,0.0590
1286.00,0.0590
1285.00,0.0589
1284.00,0.0587
1283.00,0.0585
1282.00,0.0582
1281.00,0.0579
1280.00,0.0576
1279.00,0.0575
1278.00,0.0573
1277.00,0.0572
1276.00,0.0571
1275.00,0.0570
1274.00,0.0569
1273.00,0.0570
1272.00,0.0571
1271.00,0.0574
1270.00,0.0578
1269.00,0.0585
1268.00,0.0594
1267.00,0.0605
1266.00,0.0618
1265.00,0.0634
1264.00,0.0653
1263.00,0.0674
1262.00,0.0698
1261.00,0.0725
1260.00,0.0754
1259.00,0.0785
1258.00,0.0816
1257.00,0.0848
1256.00,0.0880
1255.00,0.0911
1254.00,0.0943
1253.00,0.0975
1252.00,0.1008
1251.00,0.1040
1250.00,0.1069
1249.00,0.1095
1248.00,0.1115
1247.00,0.1127
1246.00,0.1127
1245.00,0.1117
1244.00,0.1094
1243.00,0.1061
1242.00,0.1021
1241.00,0.0976
1240.00,0.0930
1239.00,0.0885
1238.00,0.0842
1237.00,0.0804
1236.00,0.0769
1235.00,0.0738
1234.00,0.0709
1233.00,0.0682
1232.00,0.0656
1231.00,0.0631
1230.00,0.0607
1229.00,0.0586
1228.00,0.0566
1227.00,0.0549
1226.00,0.0534
1225.00,0.0522
1224.00,0.0512
1223.00,0.0503
1222.00,0.0495
1221.00,0.0486
1220.00,0.0477
1219.00,0.0467
1218.00,0.0456
1217.00,0.0447
1216.00,0.0439
1215.00,0.0431
1214.00,0.0425
1213.00,0.0419
1212.00,0.0412
1211.00,0.0403
1210.00,0.0393
1209.00,0.0381
1208.00,0.0370
1207.00,0.0359
1206.00,0.0349
1205.00,0.0341
1204.00,0.0336
1203.00,0.0331
1202.00,0.0327
1201.00,0.0325
1200.00,0.0324
1199.00,0.0324
1198.00,0.0325
1197.00,0.0328
1196.00,0.0334
1195.00,0.0342
1194.00,0.0354
1193.00,0.0369
1192.00,0.0386
1191.00,0.0406
1190.00,0.0426
1189.00,0.0444
1188.00,0.0458
1187.00,0.0465
1186.00,0.0464
1185.00,0.0453
1184.00,0.0436
1183.00,0.0415
1182.00,0.0392
1181.00,0.0370
1180.00,0.0351
1179.00,0.0334
1178.00,0.0320
1177.00,0.0310
1176.00,0.0302
1175.00,0.0298
1174.00,0.0296
1173.00,0.0296
1172.00,0.0297
1171.00,0.0301
1170.00,0.0306
1169.00,0.0313
1168.00,0.0323
1167.00,0.0335
1166.00,0.0349
1165.00,0.0366
1164.00,0.0386
1163.00,0.0408
1162.00,0.0433
1161.00,0.0460
1160.00,0.0489
1159.00,0.0520
1158.00,0.0553
1157.00,0.0589
1156.00,0.0627
1155.00,0.0667
1154.00,0.0710
1153.00,0.0754
1152.00,0.0798
1151.00,0.0841
1150.00,0.0883
1149.00,0.0923
1148.00,0.0962
1147.00,0.0999
1146.00,0.1034
1145.00,0.1067
1144.00,0.1098
1143.00,0.1127
1142.00,0.1155
1141.00,0.1181
1140.00,0.1206
1139.00,0.1230
1138.00,0.1253
1137.00,0.1277
1136.00,0.1301
1135.00,0.1324
1134.00,0.1345
1133.00,0.1364
1132.00,0.1381
1131.00,0.1393
1130.00,0.1402
1129.00,0.1408
1128.00,0.1413
1127.00,0.1417
1126.00,0.1421
1125.00,0.1427
1124.00,0.1435
1123.00,0.1444
1122.00,0.1455
1121.00,0.1469
1120.00,0.1486
1119.00,0.1504
1118.00,0.1524
1117.00,0.1546
1116.00,0.1570
1115.00,0.1593
1114.00,0.1615
1113.00,0.1636
1112.00,0.1655
1111.00,0.1671
1110.00,0.1684
1109.00,0.1695
1108.00,0.1704
1107.00,0.1712
1106.00,0.1719
1105.00,0.1726
1104.00,0.1734
1103.00,0.1743
1102.00,0.1754
1101.00,0.1766
1100.00,0.1782
1099.00,0.1798
1098.00,0.1816
1097.00,0.1836
1096.00,0.1856
1095.00,0.1876
1094.00,0.1895
1093.00,0.1913
1092.00,0.1931
1091.00,0.1945
1090.00,0.1955
1089.00,0.1962
1088.00,0.1964
1087.00,0.1962
1086.00,0.1953
1085.00,0.1941
1084.00,0.1925
1083.00,0.1905
1082.00,0.1883
1081.00,0.1858
1080.00,0.1833
1079.00,0.1807
1078.00,0.1780
1077.00,0.1755
1076.00,0.1732
1075.00,0.1711
1074.00,0.1692
1073.00,0.1675
1072.00,0.1662
1071.00,0.1651
1070.00,0.1642
1069.00,0.1636
1068.00,0.1632
1067.00,0.1630
1066.00,0.1629
1065.00,0.1631
1064.00,0.1635
1063.00,0.1643
1062.00,0.1656
1061.00,0.1678
1060.00,0.1710
1059.00,0.1752
1058.00,0.1807
1057.00,0.1876
1056.00,0.1957
1055.00,0.2050
1054.00,0.2151
1053.00,0.2260
1052.00,0.2370
1051.00,0.2477
1050.00,0.2577
1049.00,0.2669
1048.00,0.2749
1047.00,0.2813
1046.00,0.2859
1045.00,0.2889
1044.00,0.2904
1043.00,0.2902
1042.00,0.2883
1041.00,0.2852
1040.00,0.2812
1039.00,0.2761
1038.00,0.2701
1037.00,0.2636
1036.00,0.2568
1035.00,0.2494
1034.00,0.2415
1033.00,0.2333
1032.00,0.2251
1031.00,0.2167
1030.00,0.2084
1029.00,0.2002
1028.00,0.1922
1027.00,0.1842
1026.00,0.1763
1025.00,0.1685
1024.00,0.1608
1023.00,0.1533
1022.00,0.1458
1021.00,0.1386
1020.00,0.1316
1019.00,0.1248
1018.00,0.1184
1017.00,0.1125
1016.00,0.1074
1015.00,0.1030
1014.00,0.0993
1013.00,0.0959
1012.00,0.0926
1011.00,0.0890
1010.00,0.0853
1009.00,0.0819
1008.00,0.0791
1007.00,0.0770
1006.00,0.0756
1005.00,0.0747
1004.00,0.0743
1003.00,0.0740
1002.00,0.0739
1001.00,0.0740
1000.00,0.0743
999.00,0.0747
998.00,0.0752
997.00,0.0757
996.00,0.0763
995.00,0.0769
994.00,0.0773
993.00,0.0774
992.00,0.0771
991.00,0.0763
990.00,0.0751
989.00,0.0734
988.00,0.0715
987.00,0.0694
986.00,0.0673
985.00,0.0653
984.00,0.0636
983.00,0.0622
982.00,0.0612
981.00,0.0606
980.00,0.0601
979.00,0.0598
978.00,0.0595
977.00,0.0590
976.00,0.0585
975.00,0.0578
974.00,0.0570
973.00,0.0562
972.00,0.0554
971.00,0.0546
970.00,0.0539
969.00,0.0532
968.00,0.0526
967.00,0.0522
966.00,0.0521
965.00,0.0522
964.00,0.0527
963.00,0.0535
962.00,0.0545
961.00,0.0557
960.00,0.0571
959.00,0.0588
958.00,0.0605
957.00,0.0623
956.00,0.0640
955.00,0.0658
954.00,0.0676
953.00,0.0694
952.00,0.0711
951.00,0.0728
950.00,0.0741
949.00,0.0752
948.00,0.0760
947.00,0.0764
946.00,0.0765
945.00,0.0763
944.00,0.0760
943.00,0.0757
942.00,0.0753
941.00,0.0750
940.00,0.0750
939.00,0.0751
938.00,0.0754
937.00,0.0760
936.00,0.0766
935.00,0.0772
934.00,0.0779
933.00,0.0787
932.00,0.0796
931.00,0.0805
930.00,0.0816
929.00,0.0826
928.00,0.0836
927.00,0.0845
926.00,0.0851
925.00,0.0856
924.00,0.0858
923.00,0.0858
922.00,0.0854
921.00,0.0848
920.00,0.0838
919.00,0.0826
918.00,0.0811
917.00,0.0794
916.00,0.0776
915.00,0.0755
914.00,0.0731
913.00,0.0705
912.00,0.0679
911.00,0.0654
910.00,0.0629
909.00,0.0606
908.00,0.0585
907.00,0.0566
906.00,0.0550
905.00,0.0535
904.00,0.0521
903.00,0.0511
902.00,0.0503
901.00,0.0498
900.00,0.0495
899.00,0.0494
898.00,0.0495
897.00,0.0500
896.00,0.0508
895.00,0.0518
894.00,0.0532
893.00,0.0550
892.00,0.0571
891.00,0.0596
890.00,0.0625
889.00,0.0659
888.00,0.0695
887.00,0.0733
886.00,0.0771
885.00,0.0808
884.00,0.0843
883.00,0.0874
882.00,0.0898
881.00,0.0910
880.00,0.0910
879.00,0.0894
878.00,0.0864
877.00,0.0824
876.00,0.0778
875.00,0.0733
874.00,0.0694
873.00,0.0662
872.00,0.0639
871.00,0.0622
870.00,0.0609
869.00,0.0599
868.00,0.0592
867.00,0.0586
866.00,0.0582
865.00,0.0578
864.00,0.0575
863.00,0.0574
862.00,0.0575
861.00,0.0578
860.00,0.0581
859.00,0.0586
858.00,0.0590
857.00,0.0597
856.00,0.0605
855.00,0.0616
854.00,0.0628
853.00,0.0642
852.00,0.0655
851.00,0.0669
850.00,0.0683
849.00,0.0699
848.00,0.0717
847.00,0.0737
846.00,0.0758
845.00,0.0779
844.00,0.0802
843.00,0.0826
842.00,0.0850
841.00,0.0873
840.00,0.0893
839.00,0.0909
838.00,0.0919
837.00,0.0924
836.00,0.0925
835.00,0.0922
834.00,0.0918
833.00,0.0914
832.00,0.0912
831.00,0.0908
830.00,0.0901
829.00,0.0888
828.00,0.0866
827.00,0.0835
826.00,0.0797
825.00,0.0755
824.00,0.0716
823.00,0.0683
822.00,0.0658
821.00,0.0640
820.00,0.0628
819.00,0.0620
818.00,0.0616
817.00,0.0614
816.00,0.0612
815.00,0.0610
814.00,0.0610
813.00,0.0612
812.00,0.0616
811.00,0.0622
810.00,0.0629
809.00,0.0639
808.00,0.0650
807.00,0.0661
806.00,0.0673
805.00,0.0683
804.00,0.0690
803.00,0.0692
802.00,0.0688
801.00,0.0678
800.00,0.0665
799.00,0.0649
798.00,0.0631
797.00,0.0614
796.00,0.0598
795.00,0.0583
794.00,0.0569
793.00,0.0558
792.00,0.0549
791.00,0.0542
790.00,0.0535
789.00,0.0530
788.00,0.0526
787.00,0.0523
786.00,0.0521
785.00,0.0519
784.00,0.0518
783.00,0.0517
782.00,0.0515
781.00,0.0514
780.00,0.0515
779.00,0.0517
778.00,0.0519
777.00,0.0523
776.00,0.0526
775.00,0.0529
774.00,0.0532
773.00,0.0535
772.00,0.0539
771.00,0.0543
770.00,0.0546
769.00,0.0548
768.00,0.0550
767.00,0.0551
766.00,0.0554
765.00,0.0557
764.00,0.0562
763.00,0.0567
762.00,0.0574
761.00,0.0581
760.00,0.0591
759.00,0.0602
758.00,0.0614
757.00,0.0625
756.00,0.0635
755.00,0.0643
754.00,0.0652
753.00,0.0660
752.00,0.0668
751.00,0.0675
750.00,0.0680
749.00,0.0684
748.00,0.0685
747.00,0.0683
746.00,0.0680
745.00,0.0676
744.00,0.0674
743.00,0.0672
742.00,0.0672
741.00,0.0673
740.00,0.0675
739.00,0.0679
738.00,0.0683
737.00,0.0687
736.00,0.0692
735.00,0.0699
734.00,0.0708
733.00,0.0718
732.00,0.0726
731.00,0.0731
730.00,0.0733
729.00,0.0733
728.00,0.0733
727.00,0.0735
726.00,0.0737
725.00,0.0740
724.00,0.0744
723.00,0.0748
722.00,0.0751
721.00,0.0756
720.00,0.0761
719.00,0.0767
718.00,0.0773
717.00,0.0780
716.00,0.0787
715.00,0.0793
714.00,0.0798
713.00,0.0803
712.00,0.0808
711.00,0.0813
710.00,0.0818
709.00,0.0825
708.00,0.0832
707.00,0.0840
706.00,0.0846
705.00,0.0852
704.00,0.0858
703.00,0.0865
702.00,0.0872
701.00,0.0881
700.00,0.0891
699.00,0.0901
698.00,0.0910
697.00,0.0921
696.00,0.0932
695.00,0.0944
694.00,0.0955
693.00,0.0966
692.00,0.0976
691.00,0.0985
690.00,0.0992
689.00,0.1000
688.00,0.1011
687.00,0.1022
686.00,0.1034
685.00,0.1045
684.00,0.1056
683.00,0.1065
682.00,0.1071
681.00,0.1075
680.00,0.1079
679.00,0.1083
678.00,0.1088
677.00,0.1092
676.00,0.1096
675.00,0.1099
674.00,0.1102
673.00,0.1107
672.00,0.1112
671.00,0.1115
670.00,0.1116
669.00,0.1118
668.00,0.1120
667.00,0.1124
666.00,0.1127
665.00,0.1132
664.00,0.1141
663.00,0.1151
662.00,0.1158
661.00,0.1162
660.00,0.1163
659.00,0.1163
658.00,0.1163
657.00,0.1166
656.00,0.1171
655.00,0.1175
654.00,0.1177
653.00,0.1182
652.00,0.1187
651.00,0.1189
650.00,0.1187
